wavelength(AA)   flux(mJy)   unc(mJy)
4000.000     0.4532   0.0426
4001.000     0.4337   0.0448
4002.000     0.4189   0.0458
4003.000     0.4907   0.0463
4004.000     0.3702   0.0464
4005.000     0.4770   0.0444
4006.000     0.4317   0.0410
4007.000     0.3710   0.0394
4008.000     0.4218   0.0414
4009.000     0.4078   0.0441
4010.000     0.4136   0.0456
4011.000     0.5053   0.0461
4012.000     0.4714   0.0463
4013.000     0.5526   0.0461
4014.000     0.5801   0.0460
4015.000     0.4938   0.0462
4016.000     0.4824   0.0468
4017.000     0.5514   0.0472
4018.000     0.3857   0.0465
4019.000     0.4102   0.0464
4020.000     0.4686   0.0475
4021.000     0.5011   0.0482
4022.000     0.4861   0.0478
4023.000     0.4805   0.0472
4024.000     0.5044   0.0467
4025.000     0.4617   0.0458
4026.000     0.4874   0.0458
4027.000     0.4898   0.0474
4028.000     0.4690   0.0494
4029.000     0.4617   0.0499
4030.000     0.4393   0.0485
4031.000     0.4746   0.0453
4032.000     0.4171   0.0422
4033.000     0.4878   0.0410
4034.000     0.4222   0.0412
4035.000     0.5069   0.0423
4036.000     0.3975   0.0441
4037.000     0.4779   0.0469
4038.000     0.4407   0.0497
4039.000     0.5125   0.0512
4040.000     0.5606   0.0508
4041.000     0.4851   0.0493
4042.000     0.4813   0.0483
4043.000     0.5185   0.0487
4044.000     0.5859   0.0482
4045.000     0.4201   0.0447
4046.000     0.3709   0.0401
4047.000     0.3742   0.0388
4048.000     0.4303   0.0424
4049.000     0.4470   0.0470
4050.000     0.5178   0.0490
4051.000     0.5485   0.0498
4052.000     0.4528   0.0499
4053.000     0.5821   0.0491
4054.000     0.4229   0.0477
4055.000     0.4927   0.0464
4056.000     0.4746   0.0457
4057.000     0.5494   0.0455
4058.000     0.4320   0.0449
4059.000     0.4546   0.0444
4060.000     0.4881   0.0457
4061.000     0.5299   0.0480
4062.000     0.4881   0.0490
4063.000     0.5552   0.0465
4064.000     0.3835   0.0426
4065.000     0.3822   0.0413
4066.000     0.4419   0.0434
4067.000     0.4202   0.0453
4068.000     0.3934   0.0457
4069.000     0.5393   0.0470
4070.000     0.5384   0.0491
4071.000     0.3866   0.0492
4072.000     0.5083   0.0462
4073.000     0.4987   0.0446
4074.000     0.4134   0.0462
4075.000     0.5433   0.0481
4076.000     0.4037   0.0473
4077.000     0.4176   0.0439
4078.000     0.4007   0.0407
4079.000     0.4217   0.0402
4080.000     0.4455   0.0429
4081.000     0.4775   0.0467
4082.000     0.4528   0.0495
4083.000     0.5774   0.0500
4084.000     0.5172   0.0485
4085.000     0.4419   0.0467
4086.000     0.4366   0.0463
4087.000     0.5405   0.0474
4088.000     0.5268   0.0495
4089.000     0.4702   0.0517
4090.000     0.5042   0.0525
4091.000     0.5713   0.0518
4092.000     0.4053   0.0505
4093.000     0.4508   0.0494
4094.000     0.5261   0.0491
4095.000     0.4293   0.0489
4096.000     0.5474   0.0472
4097.000     0.3956   0.0445
4098.000     0.3691   0.0429
4099.000     0.3646   0.0420
4100.000     0.4054   0.0404
4101.000     0.3519   0.0367
4102.000     0.2972   0.0322
4103.000     0.3111   0.0308
4104.000     0.3103   0.0337
4105.000     0.3927   0.0383
4106.000     0.4491   0.0422
4107.000     0.4646   0.0448
4108.000     0.4124   0.0462
4109.000     0.5076   0.0466
4110.000     0.4699   0.0462
4111.000     0.4968   0.0459
4112.000     0.5060   0.0461
4113.000     0.4522   0.0470
4114.000     0.5223   0.0484
4115.000     0.4629   0.0498
4116.000     0.5377   0.0508
4117.000     0.4306   0.0514
4118.000     0.5445   0.0510
4119.000     0.4925   0.0491
4120.000     0.3957   0.0476
4121.000     0.4950   0.0479
4122.000     0.4620   0.0488
4123.000     0.5927   0.0489
4124.000     0.4990   0.0489
4125.000     0.6139   0.0499
4126.000     0.5471   0.0510
4127.000     0.4651   0.0509
4128.000     0.5123   0.0497
4129.000     0.4989   0.0487
4130.000     0.5273   0.0485
4131.000     0.4104   0.0486
4132.000     0.4659   0.0478
4133.000     0.4332   0.0460
4134.000     0.4612   0.0451
4135.000     0.4688   0.0460
4136.000     0.4994   0.0484
4137.000     0.5425   0.0508
4138.000     0.5117   0.0521
4139.000     0.5691   0.0528
4140.000     0.5166   0.0537
4141.000     0.5180   0.0540
4142.000     0.5448   0.0527
4143.000     0.5022   0.0493
4144.000     0.4069   0.0451
4145.000     0.5406   0.0442
4146.000     0.4236   0.0469
4147.000     0.4256   0.0502
4148.000     0.5760   0.0517
4149.000     0.5435   0.0516
4150.000     0.5263   0.0506
4151.000     0.4664   0.0498
4152.000     0.4287   0.0498
4153.000     0.4893   0.0500
4154.000     0.4935   0.0496
4155.000     0.4869   0.0486
4156.000     0.4857   0.0481
4157.000     0.5426   0.0483
4158.000     0.4358   0.0490
4159.000     0.4074   0.0504
4160.000     0.4993   0.0519
4161.000     0.4382   0.0526
4162.000     0.3829   0.0527
4163.000     0.6142   0.0533
4164.000     0.5505   0.0541
4165.000     0.5062   0.0540
4166.000     0.5132   0.0534
4167.000     0.6165   0.0525
4168.000     0.5697   0.0512
4169.000     0.5548   0.0509
4170.000     0.5362   0.0519
4171.000     0.4682   0.0524
4172.000     0.4973   0.0504
4173.000     0.4245   0.0469
4174.000     0.5371   0.0447
4175.000     0.4059   0.0453
4176.000     0.4137   0.0476
4177.000     0.4095   0.0489
4178.000     0.5273   0.0488
4179.000     0.4027   0.0483
4180.000     0.5229   0.0493
4181.000     0.5230   0.0508
4182.000     0.5006   0.0511
4183.000     0.6271   0.0502
4184.000     0.4733   0.0501
4185.000     0.5377   0.0512
4186.000     0.4610   0.0526
4187.000     0.4797   0.0521
4188.000     0.5384   0.0501
4189.000     0.4539   0.0492
4190.000     0.5065   0.0508
4191.000     0.5579   0.0522
4192.000     0.5263   0.0522
4193.000     0.5063   0.0528
4194.000     0.5502   0.0547
4195.000     0.4345   0.0551
4196.000     0.5156   0.0530
4197.000     0.5570   0.0504
4198.000     0.5719   0.0487
4199.000     0.5082   0.0475
4200.000     0.4814   0.0474
4201.000     0.4939   0.0486
4202.000     0.4531   0.0491
4203.000     0.5347   0.0488
4204.000     0.5371   0.0493
4205.000     0.4768   0.0504
4206.000     0.4326   0.0512
4207.000     0.5456   0.0523
4208.000     0.6056   0.0538
4209.000     0.5238   0.0548
4210.000     0.5625   0.0548
4211.000     0.5642   0.0542
4212.000     0.5973   0.0544
4213.000     0.5817   0.0553
4214.000     0.5025   0.0554
4215.000     0.5816   0.0536
4216.000     0.4900   0.0505
4217.000     0.4943   0.0493
4218.000     0.5608   0.0515
4219.000     0.4467   0.0547
4220.000     0.6133   0.0565
4221.000     0.5115   0.0573
4222.000     0.5438   0.0577
4223.000     0.6353   0.0567
4224.000     0.6051   0.0540
4225.000     0.4633   0.0505
4226.000     0.4112   0.0458
4227.000     0.3463   0.0409
4228.000     0.3603   0.0394
4229.000     0.5106   0.0440
4230.000     0.5213   0.0512
4231.000     0.4997   0.0555
4232.000     0.5610   0.0569
4233.000     0.4844   0.0559
4234.000     0.5329   0.0538
4235.000     0.5636   0.0527
4236.000     0.4494   0.0523
4237.000     0.5585   0.0514
4238.000     0.5916   0.0511
4239.000     0.5644   0.0516
4240.000     0.4928   0.0522
4241.000     0.5809   0.0531
4242.000     0.4941   0.0547
4243.000     0.4998   0.0559
4244.000     0.6835   0.0562
4245.000     0.4989   0.0571
4246.000     0.5316   0.0578
4247.000     0.5498   0.0564
4248.000     0.5434   0.0539
4249.000     0.5919   0.0523
4250.000     0.5565   0.0516
4251.000     0.5774   0.0508
4252.000     0.5548   0.0515
4253.000     0.5539   0.0538
4254.000     0.4720   0.0548
4255.000     0.5425   0.0535
4256.000     0.4875   0.0526
4257.000     0.5027   0.0542
4258.000     0.5482   0.0564
4259.000     0.6773   0.0560
4260.000     0.5840   0.0531
4261.000     0.5523   0.0501
4262.000     0.4433   0.0497
4263.000     0.5263   0.0526
4264.000     0.5528   0.0565
4265.000     0.6050   0.0588
4266.000     0.6468   0.0597
4267.000     0.5900   0.0598
4268.000     0.5924   0.0585
4269.000     0.6039   0.0566
4270.000     0.5713   0.0549
4271.000     0.5644   0.0522
4272.000     0.3520   0.0485
4273.000     0.4180   0.0464
4274.000     0.4666   0.0474
4275.000     0.4388   0.0488
4276.000     0.4461   0.0501
4277.000     0.3922   0.0528
4278.000     0.6011   0.0564
4279.000     0.5642   0.0584
4280.000     0.5233   0.0577
4281.000     0.6477   0.0553
4282.000     0.5127   0.0538
4283.000     0.5859   0.0539
4284.000     0.5603   0.0548
4285.000     0.5849   0.0551
4286.000     0.4305   0.0542
4287.000     0.5195   0.0528
4288.000     0.5005   0.0524
4289.000     0.5496   0.0514
4290.000     0.6214   0.0486
4291.000     0.5338   0.0463
4292.000     0.5370   0.0476
4293.000     0.4380   0.0514
4294.000     0.5536   0.0542
4295.000     0.5286   0.0542
4296.000     0.4547   0.0530
4297.000     0.5393   0.0522
4298.000     0.5589   0.0508
4299.000     0.4938   0.0478
4300.000     0.4780   0.0438
4301.000     0.4668   0.0411
4302.000     0.3971   0.0413
4303.000     0.5080   0.0425
4304.000     0.3967   0.0434
4305.000     0.4356   0.0445
4306.000     0.4512   0.0454
4307.000     0.4284   0.0448
4308.000     0.3662   0.0431
4309.000     0.4531   0.0410
4310.000     0.4823   0.0407
4311.000     0.4476   0.0426
4312.000     0.4583   0.0453
4313.000     0.4567   0.0474
4314.000     0.5112   0.0489
4315.000     0.5331   0.0504
4316.000     0.5268   0.0537
4317.000     0.5540   0.0590
4318.000     0.4718   0.0633
4319.000     0.6428   0.0645
4320.000     0.7257   0.0636
4321.000     0.6251   0.0621
4322.000     0.5114   0.0605
4323.000     0.5399   0.0588
4324.000     0.4699   0.0559
4325.000     0.4056   0.0511
4326.000     0.5408   0.0470
4327.000     0.4727   0.0465
4328.000     0.5327   0.0509
4329.000     0.4453   0.0571
4330.000     0.6372   0.0604
4331.000     0.6441   0.0602
4332.000     0.6666   0.0592
4333.000     0.5314   0.0594
4334.000     0.5222   0.0599
4335.000     0.6779   0.0601
4336.000     0.6392   0.0600
4337.000     0.5637   0.0581
4338.000     0.5669   0.0527
4339.000     0.5465   0.0465
4340.000     0.4254   0.0413
4341.000     0.3974   0.0377
4342.000     0.4166   0.0381
4343.000     0.4660   0.0434
4344.000     0.4822   0.0489
4345.000     0.5265   0.0522
4346.000     0.4456   0.0549
4347.000     0.4970   0.0572
4348.000     0.7357   0.0584
4349.000     0.5595   0.0596
4350.000     0.5079   0.0613
4351.000     0.6853   0.0604
4352.000     0.6561   0.0556
4353.000     0.4503   0.0518
4354.000     0.5303   0.0528
4355.000     0.5522   0.0565
4356.000     0.5716   0.0590
4357.000     0.5563   0.0607
4358.000     0.5710   0.0623
4359.000     0.5875   0.0618
4360.000     0.6353   0.0602
4361.000     0.5893   0.0601
4362.000     0.6374   0.0623
4363.000     0.6524   0.0642
4364.000     0.6359   0.0649
4365.000     0.6130   0.0656
4366.000     0.6085   0.0666
4367.000     0.6349   0.0660
4368.000     0.6292   0.0630
4369.000     0.5206   0.0608
4370.000     0.5597   0.0607
4371.000     0.6754   0.0615
4372.000     0.5700   0.0621
4373.000     0.6304   0.0623
4374.000     0.5225   0.0609
4375.000     0.6527   0.0580
4376.000     0.6320   0.0557
4377.000     0.5872   0.0573
4378.000     0.6192   0.0611
4379.000     0.6726   0.0643
4380.000     0.6408   0.0650
4381.000     0.5975   0.0643
4382.000     0.6841   0.0630
4383.000     0.5472   0.0590
4384.000     0.5440   0.0522
4385.000     0.5325   0.0472
4386.000     0.4306   0.0489
4387.000     0.5389   0.0547
4388.000     0.5923   0.0592
4389.000     0.4747   0.0605
4390.000     0.5722   0.0602
4391.000     0.5996   0.0595
4392.000     0.5201   0.0597
4393.000     0.6732   0.0612
4394.000     0.7253   0.0622
4395.000     0.7015   0.0611
4396.000     0.7218   0.0597
4397.000     0.5964   0.0614
4398.000     0.7256   0.0648
4399.000     0.6849   0.0662
4400.000     0.5624   0.0642
4401.000     0.5522   0.0610
4402.000     0.5759   0.0600
4403.000     0.5119   0.0623
4404.000     0.6320   0.0633
4405.000     0.6001   0.0598
4406.000     0.7327   0.0568
4407.000     0.5979   0.0580
4408.000     0.6846   0.0601
4409.000     0.6355   0.0602
4410.000     0.5650   0.0607
4411.000     0.5749   0.0637
4412.000     0.6300   0.0668
4413.000     0.6647   0.0688
4414.000     0.7662   0.0686
4415.000     0.7390   0.0657
4416.000     0.5882   0.0612
4417.000     0.5807   0.0595
4418.000     0.5620   0.0611
4419.000     0.6274   0.0639
4420.000     0.6888   0.0670
4421.000     0.6513   0.0689
4422.000     0.6888   0.0679
4423.000     0.6133   0.0655
4424.000     0.7285   0.0642
4425.000     0.6643   0.0649
4426.000     0.6202   0.0658
4427.000     0.7499   0.0656
4428.000     0.5403   0.0655
4429.000     0.6525   0.0661
4430.000     0.7668   0.0664
4431.000     0.7339   0.0653
4432.000     0.6992   0.0647
4433.000     0.6549   0.0657
4434.000     0.7235   0.0656
4435.000     0.6770   0.0630
4436.000     0.6719   0.0605
4437.000     0.5492   0.0612
4438.000     0.7245   0.0651
4439.000     0.6287   0.0692
4440.000     0.6214   0.0714
4441.000     0.7046   0.0705
4442.000     0.6700   0.0675
4443.000     0.7195   0.0637
4444.000     0.6023   0.0616
4445.000     0.6459   0.0626
4446.000     0.5941   0.0661
4447.000     0.6056   0.0692
4448.000     0.6723   0.0698
4449.000     0.7361   0.0695
4450.000     0.8751   0.0693
4451.000     0.6122   0.0685
4452.000     0.8042   0.0680
4453.000     0.6646   0.0684
4454.000     0.7752   0.0678
4455.000     0.5510   0.0647
4456.000     0.6329   0.0617
4457.000     0.6210   0.0611
4458.000     0.5980   0.0626
4459.000     0.6179   0.0635
4460.000     0.6319   0.0632
4461.000     0.6353   0.0627
4462.000     0.5016   0.0620
4463.000     0.5410   0.0619
4464.000     0.5834   0.0640
4465.000     0.4824   0.0669
4466.000     0.5843   0.0678
4467.000     0.7278   0.0677
4468.000     0.6943   0.0674
4469.000     0.6019   0.0664
4470.000     0.7120   0.0651
4471.000     0.6510   0.0652
4472.000     0.6060   0.0669
4473.000     0.7378   0.0694
4474.000     0.8137   0.0718
4475.000     0.7068   0.0733
4476.000     0.7883   0.0734
4477.000     0.7558   0.0734
4478.000     0.7690   0.0745
4479.000     0.6553   0.0750
4480.000     0.6299   0.0730
4481.000     0.6119   0.0689
4482.000     0.6738   0.0653
4483.000     0.6402   0.0645
4484.000     0.6593   0.0672
4485.000     0.8024   0.0710
4486.000     0.8532   0.0740
4487.000     0.6088   0.0751
4488.000     0.5853   0.0746
4489.000     0.6862   0.0720
4490.000     0.7189   0.0689
4491.000     0.7142   0.0675
4492.000     0.6726   0.0691
4493.000     0.5626   0.0715
4494.000     0.8591   0.0722
4495.000     0.6553   0.0704
4496.000     0.7075   0.0683
4497.000     0.6833   0.0682
4498.000     0.6758   0.0699
4499.000     0.8059   0.0725
4500.000     0.8363   0.0742
4501.000     0.6384   0.0740
4502.000     0.5371   0.0724
4503.000     0.6779   0.0726
4504.000     0.7807   0.0755
4505.000     0.8055   0.0784
4506.000     0.8210   0.0793
4507.000     0.8728   0.0784
4508.000     0.8490   0.0770
4509.000     0.7266   0.0760
4510.000     0.6563   0.0762
4511.000     0.7128   0.0772
4512.000     0.8694   0.0777
4513.000     0.7126   0.0768
4514.000     0.8374   0.0752
4515.000     0.7887   0.0739
4516.000     0.8929   0.0733
4517.000     0.7351   0.0736
4518.000     0.5637   0.0736
4519.000     0.8774   0.0730
4520.000     0.7361   0.0734
4521.000     0.7380   0.0747
4522.000     0.8659   0.0757
4523.000     0.7207   0.0747
4524.000     0.6487   0.0727
4525.000     0.6927   0.0718
4526.000     0.7537   0.0712
4527.000     0.6687   0.0696
4528.000     0.7979   0.0675
4529.000     0.5935   0.0658
4530.000     0.6011   0.0652
4531.000     0.5693   0.0661
4532.000     0.8085   0.0678
4533.000     0.8133   0.0693
4534.000     0.6691   0.0690
4535.000     0.6082   0.0668
4536.000     0.5381   0.0656
4537.000     0.7749   0.0676
4538.000     0.7717   0.0726
4539.000     0.8155   0.0766
4540.000     0.7374   0.0766
4541.000     0.8395   0.0749
4542.000     0.7360   0.0734
4543.000     0.6489   0.0738
4544.000     0.6793   0.0748
4545.000     0.7631   0.0743
4546.000     0.6295   0.0730
4547.000     0.7656   0.0727
4548.000     0.6608   0.0731
4549.000     0.6883   0.0723
4550.000     0.6631   0.0701
4551.000     0.6702   0.0694
4552.000     0.7496   0.0712
4553.000     0.6295   0.0727
4554.000     0.6711   0.0720
4555.000     0.6043   0.0703
4556.000     0.6588   0.0696
4557.000     0.6380   0.0711
4558.000     0.7514   0.0742
4559.000     0.8022   0.0768
4560.000     0.9282   0.0778
4561.000     0.7417   0.0780
4562.000     0.8870   0.0782
4563.000     0.7350   0.0779
4564.000     0.7073   0.0760
4565.000     0.7794   0.0734
4566.000     0.7938   0.0721
4567.000     0.8152   0.0735
4568.000     0.8018   0.0763
4569.000     0.7963   0.0785
4570.000     0.9288   0.0789
4571.000     0.7382   0.0776
4572.000     0.6839   0.0749
4573.000     0.6868   0.0734
4574.000     0.6555   0.0754
4575.000     0.7255   0.0779
4576.000     0.9104   0.0785
4577.000     0.6542   0.0782
4578.000     0.9178   0.0781
4579.000     0.6525   0.0774
4580.000     0.8355   0.0755
4581.000     0.5296   0.0731
4582.000     0.8459   0.0720
4583.000     0.6735   0.0724
4584.000     0.7452   0.0731
4585.000     0.7262   0.0733
4586.000     0.7075   0.0733
4587.000     0.8524   0.0738
4588.000     0.8324   0.0752
4589.000     0.7677   0.0772
4590.000     0.8231   0.0786
4591.000     0.8581   0.0784
4592.000     0.7451   0.0769
4593.000     0.8162   0.0751
4594.000     0.8248   0.0745
4595.000     0.7038   0.0749
4596.000     0.6639   0.0751
4597.000     0.7780   0.0752
4598.000     0.6887   0.0757
4599.000     0.7957   0.0763
4600.000     0.7449   0.0766
4601.000     0.8367   0.0760
4602.000     0.8198   0.0751
4603.000     0.9155   0.0755
4604.000     0.8602   0.0764
4605.000     0.8086   0.0767
4606.000     0.7198   0.0767
4607.000     0.6905   0.0769
4608.000     0.8237   0.0782
4609.000     0.9103   0.0803
4610.000     0.8956   0.0822
4611.000     0.8132   0.0824
4612.000     0.7646   0.0810
4613.000     0.8884   0.0796
4614.000     0.8094   0.0789
4615.000     0.6502   0.0792
4616.000     0.9232   0.0799
4617.000     0.6222   0.0800
4618.000     0.7370   0.0799
4619.000     0.7651   0.0798
4620.000     0.8392   0.0791
4621.000     0.7484   0.0791
4622.000     0.7490   0.0805
4623.000     0.8127   0.0815
4624.000     0.9096   0.0816
4625.000     0.7870   0.0814
4626.000     0.9814   0.0810
4627.000     0.8275   0.0806
4628.000     0.7676   0.0808
4629.000     0.7733   0.0808
4630.000     0.7461   0.0799
4631.000     0.8515   0.0798
4632.000     0.7875   0.0811
4633.000     0.8036   0.0817
4634.000     0.7535   0.0805
4635.000     0.9359   0.0792
4636.000     0.6390   0.0790
4637.000     0.7639   0.0791
4638.000     0.8144   0.0784
4639.000     0.7997   0.0775
4640.000     0.7745   0.0771
4641.000     0.8351   0.0776
4642.000     0.8127   0.0793
4643.000     0.7935   0.0810
4644.000     0.7283   0.0813
4645.000     0.8297   0.0802
4646.000     0.6994   0.0785
4647.000     0.6056   0.0760
4648.000     0.8109   0.0739
4649.000     0.7217   0.0741
4650.000     0.7228   0.0760
4651.000     0.7674   0.0783
4652.000     0.7870   0.0798
4653.000     0.7794   0.0805
4654.000     0.7901   0.0805
4655.000     0.8121   0.0793
4656.000     0.7636   0.0774
4657.000     0.8068   0.0766
4658.000     0.9739   0.0779
4659.000     0.8892   0.0808
4660.000     0.8816   0.0841
4661.000     0.8655   0.0856
4662.000     0.8813   0.0848
4663.000     0.8928   0.0826
4664.000     0.8422   0.0805
4665.000     0.8926   0.0797
4666.000     0.8793   0.0792
4667.000     0.7528   0.0767
4668.000     0.6939   0.0728
4669.000     0.7428   0.0707
4670.000     0.8470   0.0725
4671.000     0.6786   0.0760
4672.000     0.8280   0.0792
4673.000     0.8040   0.0808
4674.000     0.7941   0.0806
4675.000     0.7844   0.0802
4676.000     0.9370   0.0810
4677.000     0.9152   0.0826
4678.000     0.8463   0.0833
4679.000     0.7788   0.0820
4680.000     0.8737   0.0799
4681.000     0.8125   0.0784
4682.000     0.7443   0.0777
4683.000     0.7510   0.0783
4684.000     0.8200   0.0798
4685.000     0.6805   0.0815
4686.000     0.8110   0.0823
4687.000     0.7986   0.0821
4688.000     0.7701   0.0816
4689.000     0.8692   0.0812
4690.000     0.7506   0.0812
4691.000     0.8297   0.0810
4692.000     0.7736   0.0805
4693.000     0.7739   0.0805
4694.000     0.7769   0.0817
4695.000     1.0677   0.0830
4696.000     0.8512   0.0843
4697.000     0.7800   0.0851
4698.000     0.7074   0.0843
4699.000     0.6969   0.0818
4700.000     0.7161   0.0795
4701.000     0.7531   0.0791
4702.000     0.7784   0.0794
4703.000     0.8681   0.0785
4704.000     0.7359   0.0773
4705.000     0.8092   0.0780
4706.000     0.7974   0.0800
4707.000     0.8572   0.0808
4708.000     0.8376   0.0797
4709.000     0.7825   0.0780
4710.000     0.7659   0.0774
4711.000     0.9410   0.0786
4712.000     0.8208   0.0812
4713.000     0.7370   0.0832
4714.000     0.7821   0.0831
4715.000     0.6772   0.0813
4716.000     0.7523   0.0805
4717.000     0.6976   0.0818
4718.000     0.9275   0.0841
4719.000     1.0475   0.0856
4720.000     0.8859   0.0862
4721.000     0.8003   0.0867
4722.000     0.7999   0.0864
4723.000     0.7467   0.0856
4724.000     0.7345   0.0854
4725.000     0.8413   0.0863
4726.000     0.9625   0.0874
4727.000     0.8295   0.0864
4728.000     0.6849   0.0833
4729.000     0.9707   0.0801
4730.000     0.6386   0.0788
4731.000     0.8413   0.0793
4732.000     0.9541   0.0801
4733.000     0.9091   0.0812
4734.000     0.8899   0.0825
4735.000     0.6705   0.0836
4736.000     0.9103   0.0841
4737.000     0.7746   0.0834
4738.000     0.8238   0.0825
4739.000     0.7142   0.0835
4740.000     0.7441   0.0851
4741.000     0.7637   0.0850
4742.000     1.0027   0.0841
4743.000     0.7657   0.0842
4744.000     0.7344   0.0852
4745.000     0.6519   0.0859
4746.000     1.0142   0.0858
4747.000     0.9186   0.0860
4748.000     0.8210   0.0868
4749.000     0.6572   0.0871
4750.000     0.7749   0.0869
4751.000     0.8008   0.0870
4752.000     1.0474   0.0869
4753.000     0.7855   0.0862
4754.000     0.9074   0.0851
4755.000     0.6971   0.0842
4756.000     0.8079   0.0838
4757.000     0.9216   0.0836
4758.000     0.7857   0.0838
4759.000     0.7240   0.0844
4760.000     0.9191   0.0854
4761.000     0.9122   0.0861
4762.000     0.8795   0.0854
4763.000     0.9243   0.0831
4764.000     0.7715   0.0810
4765.000     0.8334   0.0803
4766.000     0.7107   0.0801
4767.000     0.7804   0.0802
4768.000     0.8173   0.0812
4769.000     0.6507   0.0832
4770.000     0.8009   0.0852
4771.000     0.9248   0.0864
4772.000     0.7220   0.0859
4773.000     0.7865   0.0847
4774.000     0.8572   0.0848
4775.000     1.1301   0.0867
4776.000     0.9693   0.0883
4777.000     0.8364   0.0885
4778.000     0.7452   0.0884
4779.000     0.8530   0.0885
4780.000     0.8820   0.0879
4781.000     0.9663   0.0871
4782.000     0.8217   0.0868
4783.000     0.9362   0.0864
4784.000     0.9480   0.0853
4785.000     0.8293   0.0850
4786.000     0.9197   0.0853
4787.000     0.8163   0.0847
4788.000     0.8408   0.0838
4789.000     0.7115   0.0839
4790.000     0.8447   0.0841
4791.000     0.9146   0.0842
4792.000     0.9001   0.0851
4793.000     0.8419   0.0863
4794.000     0.9681   0.0879
4795.000     0.8469   0.0900
4796.000     0.8925   0.0914
4797.000     0.7879   0.0912
4798.000     0.9592   0.0898
4799.000     0.8396   0.0877
4800.000     0.8800   0.0860
4801.000     0.8711   0.0855
4802.000     0.8682   0.0869
4803.000     0.9171   0.0890
4804.000     0.9671   0.0900
4805.000     0.8845   0.0892
4806.000     0.9235   0.0875
4807.000     0.8799   0.0865
4808.000     0.9142   0.0864
4809.000     0.8422   0.0863
4810.000     0.9579   0.0868
4811.000     0.9310   0.0876
4812.000     0.8070   0.0881
4813.000     0.8691   0.0883
4814.000     0.8198   0.0886
4815.000     0.7307   0.0890
4816.000     0.8764   0.0895
4817.000     1.0219   0.0902
4818.000     0.9706   0.0909
4819.000     0.9129   0.0914
4820.000     0.9564   0.0917
4821.000     0.9773   0.0917
4822.000     1.0213   0.0910
4823.000     0.9704   0.0895
4824.000     1.0534   0.0868
4825.000     0.9475   0.0849
4826.000     0.7098   0.0859
4827.000     0.8938   0.0882
4828.000     0.9844   0.0892
4829.000     0.8684   0.0886
4830.000     0.7410   0.0878
4831.000     0.8801   0.0876
4832.000     0.8185   0.0872
4833.000     0.6711   0.0864
4834.000     0.8551   0.0866
4835.000     0.9747   0.0879
4836.000     0.9521   0.0889
4837.000     0.9513   0.0888
4838.000     0.9015   0.0886
4839.000     0.7874   0.0881
4840.000     0.9732   0.0866
4841.000     0.8335   0.0853
4842.000     0.8019   0.0854
4843.000     0.8768   0.0861
4844.000     1.0115   0.0862
4845.000     0.9089   0.0865
4846.000     0.9103   0.0879
4847.000     0.8101   0.0891
4848.000     1.0567   0.0883
4849.000     0.9418   0.0863
4850.000     0.9916   0.0851
4851.000     1.0173   0.0858
4852.000     0.7666   0.0870
4853.000     0.9491   0.0871
4854.000     0.9314   0.0862
4855.000     0.6897   0.0842
4856.000     0.8366   0.0807
4857.000     0.7489   0.0784
4858.000     0.6318   0.0789
4859.000     0.8508   0.0788
4860.000     0.7296   0.0744
4861.000     0.6595   0.0663
4862.000     0.6298   0.0585
4863.000     0.5731   0.0568
4864.000     0.6645   0.0636
4865.000     0.6227   0.0712
4866.000     0.8197   0.0760
4867.000     0.7641   0.0793
4868.000     0.7316   0.0815
4869.000     0.7987   0.0829
4870.000     0.8976   0.0835
4871.000     0.7041   0.0825
4872.000     0.8488   0.0794
4873.000     0.7465   0.0776
4874.000     0.9457   0.0796
4875.000     0.8893   0.0829
4876.000     0.8736   0.0846
4877.000     0.9218   0.0852
4878.000     0.8137   0.0858
4879.000     0.9102   0.0869
4880.000     0.8693   0.0886
4881.000     0.8505   0.0900
4882.000     0.9148   0.0892
4883.000     0.8650   0.0876
4884.000     0.9922   0.0874
4885.000     0.9015   0.0874
4886.000     0.8912   0.0861
4887.000     0.8333   0.0848
4888.000     0.9574   0.0848
4889.000     0.6967   0.0857
4890.000     0.6974   0.0857
4891.000     0.7388   0.0838
4892.000     0.8190   0.0817
4893.000     0.6663   0.0831
4894.000     0.7854   0.0879
4895.000     0.9912   0.0928
4896.000     1.0085   0.0957
4897.000     0.8254   0.0968
4898.000     1.0364   0.0968
4899.000     1.1096   0.0961
4900.000     1.1466   0.0943
4901.000     0.9396   0.0923
4902.000     0.9447   0.0917
4903.000     0.9103   0.0920
4904.000     1.0677   0.0912
4905.000     0.9552   0.0907
4906.000     0.8346   0.0921
4907.000     1.0244   0.0944
4908.000     0.8934   0.0952
4909.000     0.9914   0.0935
4910.000     0.7907   0.0906
4911.000     0.8693   0.0879
4912.000     1.0844   0.0871
4913.000     0.7802   0.0886
4914.000     0.9311   0.0909
4915.000     1.0373   0.0929
4916.000     0.9235   0.0945
4917.000     1.0581   0.0955
4918.000     0.9808   0.0936
4919.000     0.8372   0.0892
4920.000     0.7706   0.0837
4921.000     0.8162   0.0800
4922.000     0.6608   0.0805
4923.000     0.7319   0.0840
4924.000     0.8857   0.0868
4925.000     0.7674   0.0874
4926.000     0.8562   0.0878
4927.000     0.7913   0.0901
4928.000     1.0455   0.0929
4929.000     1.0323   0.0947
4930.000     1.0024   0.0959
4931.000     0.9850   0.0967
4932.000     0.9137   0.0965
4933.000     0.8392   0.0949
4934.000     1.1104   0.0916
4935.000     0.9427   0.0888
4936.000     0.8773   0.0892
4937.000     0.9513   0.0911
4938.000     0.9920   0.0905
4939.000     0.9885   0.0874
4940.000     0.9987   0.0854
4941.000     0.9397   0.0875
4942.000     0.8412   0.0917
4943.000     0.9553   0.0948
4944.000     1.0110   0.0962
4945.000     0.9600   0.0968
4946.000     0.9702   0.0962
4947.000     0.6560   0.0950
4948.000     1.1117   0.0951
4949.000     0.9490   0.0964
4950.000     1.1430   0.0975
4951.000     1.0717   0.0979
4952.000     1.0209   0.0980
4953.000     1.1770   0.0977
4954.000     0.9001   0.0967
4955.000     1.2276   0.0961
4956.000     0.9626   0.0953
4957.000     0.7517   0.0924
4958.000     0.8073   0.0869
4959.000     0.8513   0.0841
4960.000     0.7173   0.0878
4961.000     0.9258   0.0939
4962.000     0.9249   0.0970
4963.000     0.9012   0.0971
4964.000     0.9141   0.0968
4965.000     0.8852   0.0962
4966.000     0.9627   0.0944
4967.000     0.9496   0.0923
4968.000     0.9031   0.0916
4969.000     0.9240   0.0918
4970.000     0.9506   0.0922
4971.000     0.9805   0.0928
4972.000     0.9583   0.0937
4973.000     1.1289   0.0951
4974.000     1.1294   0.0964
4975.000     0.8714   0.0974
4976.000     0.8731   0.0977
4977.000     0.8717   0.0972
4978.000     1.0346   0.0960
4979.000     0.8867   0.0943
4980.000     1.0394   0.0929
4981.000     0.8338   0.0919
4982.000     0.7706   0.0900
4983.000     0.7156   0.0866
4984.000     0.6976   0.0837
4985.000     0.8022   0.0837
4986.000     1.0357   0.0859
4987.000     0.9554   0.0891
4988.000     0.9375   0.0926
4989.000     0.8789   0.0947
4990.000     0.9154   0.0947
4991.000     0.8605   0.0934
4992.000     0.8872   0.0925
4993.000     0.9470   0.0929
4994.000     0.9963   0.0936
4995.000     0.9035   0.0937
4996.000     1.0055   0.0944
4997.000     0.9483   0.0955
4998.000     0.9210   0.0958
4999.000     0.9909   0.0949
5000.000     0.8807   0.0928
5001.000     0.9122   0.0905
5002.000     0.8929   0.0895
5003.000     0.9931   0.0899
5004.000     0.9007   0.0908
5005.000     0.9415   0.0909
5006.000     0.8000   0.0891
5007.000     0.8466   0.0866
5008.000     0.9772   0.0864
5009.000     1.0228   0.0900
5010.000     1.0010   0.0937
5011.000     0.8937   0.0945
5012.000     0.8523   0.0927
5013.000     0.8205   0.0894
5014.000     0.8143   0.0862
5015.000     0.8783   0.0847
5016.000     0.7961   0.0858
5017.000     0.7904   0.0881
5018.000     0.7835   0.0889
5019.000     0.8170   0.0881
5020.000     0.6989   0.0882
5021.000     0.7631   0.0899
5022.000     0.8206   0.0910
5023.000     0.8755   0.0907
5024.000     1.0552   0.0908
5025.000     0.9960   0.0924
5026.000     0.9593   0.0939
5027.000     0.7875   0.0937
5028.000     0.8754   0.0923
5029.000     0.9744   0.0916
5030.000     1.0484   0.0930
5031.000     0.7282   0.0950
5032.000     1.0945   0.0963
5033.000     0.9595   0.0977
5034.000     1.0826   0.0992
5035.000     0.9344   0.0991
5036.000     0.9533   0.0959
5037.000     0.8112   0.0923
5038.000     0.9216   0.0913
5039.000     1.0588   0.0917
5040.000     1.0174   0.0899
5041.000     0.9284   0.0857
5042.000     0.7544   0.0821
5043.000     0.8115   0.0832
5044.000     0.8334   0.0886
5045.000     0.9758   0.0943
5046.000     1.0781   0.0981
5047.000     0.8821   0.1001
5048.000     0.9422   0.0996
5049.000     1.0556   0.0966
5050.000     1.0328   0.0930
5051.000     0.8014   0.0912
5052.000     0.9059   0.0913
5053.000     1.0355   0.0921
5054.000     1.0572   0.0941
5055.000     0.9317   0.0967
5056.000     1.0938   0.0987
5057.000     1.0314   0.0995
5058.000     0.9001   0.0996
5059.000     1.1656   0.0997
5060.000     0.9577   0.0999
5061.000     0.9897   0.1002
5062.000     0.8485   0.1008
5063.000     0.9615   0.1012
5064.000     0.9266   0.0998
5065.000     0.7916   0.0963
5066.000     0.9692   0.0929
5067.000     0.8573   0.0923
5068.000     1.0247   0.0938
5069.000     0.9157   0.0944
5070.000     1.0543   0.0947
5071.000     0.9643   0.0959
5072.000     0.9465   0.0965
5073.000     0.9334   0.0952
5074.000     0.8651   0.0945
5075.000     0.9064   0.0954
5076.000     1.0385   0.0960
5077.000     1.0378   0.0960
5078.000     0.9499   0.0963
5079.000     0.9441   0.0953
5080.000     0.7870   0.0912
5081.000     0.8271   0.0870
5082.000     0.8248   0.0871
5083.000     0.7779   0.0897
5084.000     1.0261   0.0917
5085.000     0.9108   0.0930
5086.000     0.9369   0.0949
5087.000     1.0415   0.0966
5088.000     0.8827   0.0972
5089.000     1.0385   0.0972
5090.000     0.7553   0.0976
5091.000     0.9250   0.0982
5092.000     0.7865   0.0985
5093.000     1.1145   0.0992
5094.000     1.0793   0.1005
5095.000     0.9461   0.1011
5096.000     1.0024   0.1002
5097.000     0.8987   0.0982
5098.000     0.9952   0.0956
5099.000     0.9963   0.0925
5100.000     0.8461   0.0901
5101.000     0.9466   0.0911
5102.000     0.8658   0.0947
5103.000     0.9446   0.0977
5104.000     1.0055   0.0984
5105.000     1.0515   0.0977
5106.000     0.9039   0.0968
5107.000     0.9474   0.0958
5108.000     0.9850   0.0942
5109.000     1.0027   0.0931
5110.000     1.0603   0.0930
5111.000     0.9174   0.0933
5112.000     1.1236   0.0942
5113.000     0.8858   0.0962
5114.000     1.0636   0.0980
5115.000     1.1478   0.0989
5116.000     1.1795   0.0994
5117.000     0.9903   0.1001
5118.000     0.9056   0.1012
5119.000     0.8662   0.1021
5120.000     0.9761   0.1019
5121.000     0.8224   0.1007
5122.000     0.9114   0.0989
5123.000     0.7918   0.0967
5124.000     0.9731   0.0941
5125.000     1.0223   0.0920
5126.000     0.9010   0.0915
5127.000     1.0608   0.0925
5128.000     0.9022   0.0933
5129.000     0.9942   0.0934
5130.000     0.8428   0.0931
5131.000     0.9561   0.0934
5132.000     1.0249   0.0947
5133.000     0.9961   0.0961
5134.000     1.0717   0.0969
5135.000     0.9937   0.0977
5136.000     1.0000   0.0990
5137.000     1.0094   0.0991
5138.000     1.0911   0.0972
5139.000     0.9838   0.0945
5140.000     0.9723   0.0927
5141.000     0.9500   0.0929
5142.000     1.0546   0.0942
5143.000     0.7179   0.0937
5144.000     0.8682   0.0925
5145.000     0.9416   0.0936
5146.000     0.9665   0.0952
5147.000     0.8097   0.0950
5148.000     1.0867   0.0939
5149.000     0.9579   0.0940
5150.000     0.9007   0.0952
5151.000     1.0939   0.0958
5152.000     1.0401   0.0948
5153.000     0.7968   0.0935
5154.000     0.7268   0.0931
5155.000     0.8536   0.0935
5156.000     1.0318   0.0949
5157.000     1.0551   0.0973
5158.000     1.0348   0.1000
5159.000     1.1003   0.1015
5160.000     0.9998   0.1019
5161.000     1.1424   0.1019
5162.000     1.1034   0.1015
5163.000     0.9111   0.1002
5164.000     0.9818   0.0987
5165.000     0.9815   0.0973
5166.000     1.0183   0.0937
5167.000     0.7864   0.0869
5168.000     0.7864   0.0792
5169.000     0.8017   0.0757
5170.000     0.7450   0.0783
5171.000     0.9152   0.0836
5172.000     0.9088   0.0843
5173.000     0.7437   0.0788
5174.000     0.7512   0.0753
5175.000     0.8169   0.0800
5176.000     0.8927   0.0894
5177.000     0.8590   0.0962
5178.000     0.9124   0.0988
5179.000     1.1737   0.0996
5180.000     0.9555   0.0998
5181.000     1.0424   0.0989
5182.000     0.9100   0.0959
5183.000     0.7204   0.0896
5184.000     0.9697   0.0803
5185.000     0.6865   0.0750
5186.000     0.8043   0.0797
5187.000     0.8173   0.0895
5188.000     0.9252   0.0966
5189.000     0.9729   0.0984
5190.000     0.9396   0.0986
5191.000     1.0372   0.0991
5192.000     1.1411   0.0974
5193.000     0.9013   0.0934
5194.000     1.0291   0.0916
5195.000     0.8718   0.0932
5196.000     0.9880   0.0949
5197.000     0.8996   0.0957
5198.000     0.9658   0.0970
5199.000     0.9821   0.0988
5200.000     1.1354   0.1006
5201.000     1.0897   0.1019
5202.000     1.0711   0.1022
5203.000     0.9844   0.1014
5204.000     1.0876   0.0999
5205.000     1.0625   0.0974
5206.000     0.9558   0.0937
5207.000     0.8633   0.0913
5208.000     0.9320   0.0909
5209.000     0.7803   0.0906
5210.000     1.0029   0.0906
5211.000     0.7450   0.0927
5212.000     1.0817   0.0966
5213.000     0.9175   0.1008
5214.000     0.9694   0.1037
5215.000     0.9958   0.1042
5216.000     1.0917   0.1021
5217.000     0.9436   0.0993
5218.000     1.0726   0.0985
5219.000     1.1149   0.1003
5220.000     1.1322   0.1031
5221.000     0.9477   0.1051
5222.000     1.1992   0.1061
5223.000     1.0014   0.1061
5224.000     1.2712   0.1045
5225.000     0.9699   0.1013
5226.000     0.7527   0.0969
5227.000     1.0160   0.0920
5228.000     0.8732   0.0893
5229.000     0.8164   0.0917
5230.000     0.8779   0.0978
5231.000     1.1980   0.1025
5232.000     1.0220   0.1042
5233.000     0.9956   0.1033
5234.000     1.0249   0.1006
5235.000     1.0355   0.0988
5236.000     0.8760   0.0994
5237.000     1.0455   0.1019
5238.000     0.9705   0.1049
5239.000     1.0654   0.1068
5240.000     1.0804   0.1070
5241.000     1.4192   0.1069
5242.000     1.2084   0.1072
5243.000     1.3842   0.1072
5244.000     1.0407   0.1070
5245.000     1.1844   0.1077
5246.000     1.1094   0.1082
5247.000     1.2306   0.1066
5248.000     0.8206   0.1032
5249.000     0.8753   0.1013
5250.000     0.8393   0.1014
5251.000     1.0986   0.1009
5252.000     0.9194   0.1003
5253.000     1.0489   0.1015
5254.000     1.0663   0.1031
5255.000     1.0049   0.1033
5256.000     1.1204   0.1025
5257.000     1.0126   0.1034
5258.000     1.1768   0.1068
5259.000     1.0270   0.1099
5260.000     1.1623   0.1109
5261.000     1.1661   0.1094
5262.000     0.8938   0.1059
5263.000     1.0263   0.1011
5264.000     0.9324   0.0963
5265.000     0.8555   0.0928
5266.000     1.1302   0.0906
5267.000     0.9844   0.0904
5268.000     1.0328   0.0928
5269.000     1.1221   0.0945
5270.000     0.9818   0.0917
5271.000     0.8299   0.0878
5272.000     1.0373   0.0904
5273.000     0.8757   0.0970
5274.000     0.8890   0.1012
5275.000     1.0525   0.1016
5276.000     1.0760   0.1006
5277.000     0.9412   0.1011
5278.000     0.9995   0.1045
5279.000     1.0101   0.1089
5280.000     1.1578   0.1106
5281.000     1.0909   0.1093
5282.000     1.0200   0.1065
5283.000     1.0292   0.1039
5284.000     1.1287   0.1020
5285.000     1.0101   0.1020
5286.000     1.0340   0.1049
5287.000     1.0598   0.1096
5288.000     1.3000   0.1126
5289.000     1.1919   0.1129
5290.000     1.2614   0.1125
5291.000     1.1652   0.1129
5292.000     0.9597   0.1136
5293.000     1.0878   0.1134
5294.000     1.1434   0.1124
5295.000     1.2529   0.1115
5296.000     0.8401   0.1104
5297.000     1.1491   0.1075
5298.000     1.1495   0.1030
5299.000     0.8998   0.1001
5300.000     0.8596   0.1011
5301.000     1.3722   0.1045
5302.000     1.0613   0.1064
5303.000     0.9925   0.1068
5304.000     1.0982   0.1084
5305.000     1.2225   0.1112
5306.000     1.0518   0.1135
5307.000     1.2919   0.1136
5308.000     0.9377   0.1124
5309.000     1.1053   0.1119
5310.000     1.1340   0.1130
5311.000     1.3134   0.1144
5312.000     1.1315   0.1147
5313.000     1.1289   0.1142
5314.000     1.0972   0.1134
5315.000     0.8540   0.1128
5316.000     1.0623   0.1120
5317.000     1.3513   0.1103
5318.000     1.0727   0.1090
5319.000     1.1767   0.1093
5320.000     1.0704   0.1106
5321.000     1.1408   0.1113
5322.000     1.0834   0.1114
5323.000     1.0161   0.1107
5324.000     1.1376   0.1091
5325.000     0.9855   0.1068
5326.000     1.1625   0.1058
5327.000     1.1244   0.1053
5328.000     0.9376   0.1018
5329.000     0.8823   0.0954
5330.000     1.0438   0.0929
5331.000     1.0869   0.0981
5332.000     1.0107   0.1050
5333.000     1.0681   0.1087
5334.000     1.0604   0.1094
5335.000     1.2562   0.1104
5336.000     1.2111   0.1120
5337.000     1.1783   0.1124
5338.000     1.0150   0.1116
5339.000     0.9910   0.1108
5340.000     1.1939   0.1091
5341.000     1.2388   0.1062
5342.000     0.7584   0.1043
5343.000     0.8908   0.1061
5344.000     1.1649   0.1095
5345.000     1.0886   0.1116
5346.000     1.0090   0.1114
5347.000     1.1793   0.1104
5348.000     0.9530   0.1099
5349.000     1.1915   0.1093
5350.000     1.0338   0.1081
5351.000     1.2647   0.1085
5352.000     1.0856   0.1108
5353.000     1.2433   0.1133
5354.000     1.0908   0.1143
5355.000     1.0376   0.1150
5356.000     1.0953   0.1165
5357.000     1.1858   0.1179
5358.000     1.0025   0.1184
5359.000     1.3166   0.1185
5360.000     1.1813   0.1185
5361.000     0.9040   0.1179
5362.000     0.9903   0.1163
5363.000     1.0116   0.1142
5364.000     1.0003   0.1126
5365.000     1.1379   0.1117
5366.000     1.0864   0.1108
5367.000     1.1484   0.1105
5368.000     1.0291   0.1109
5369.000     1.2165   0.1110
5370.000     1.0185   0.1095
5371.000     0.9735   0.1060
5372.000     1.0766   0.1029
5373.000     0.9291   0.1034
5374.000     1.1808   0.1082
5375.000     1.3052   0.1134
5376.000     1.2743   0.1163
5377.000     1.0702   0.1170
5378.000     1.1063   0.1167
5379.000     1.2308   0.1163
5380.000     1.1359   0.1159
5381.000     1.3088   0.1150
5382.000     1.2972   0.1138
5383.000     1.2575   0.1130
5384.000     1.3066   0.1125
5385.000     1.0351   0.1129
5386.000     1.0721   0.1143
5387.000     1.2235   0.1156
5388.000     1.3662   0.1157
5389.000     1.0450   0.1149
5390.000     1.1089   0.1134
5391.000     1.1743   0.1119
5392.000     1.0976   0.1108
5393.000     0.8620   0.1104
5394.000     1.0405   0.1102
5395.000     1.0508   0.1101
5396.000     1.0576   0.1099
5397.000     0.9728   0.1082
5398.000     1.0320   0.1058
5399.000     0.8320   0.1059
5400.000     0.9892   0.1089
5401.000     1.0530   0.1115
5402.000     1.1174   0.1124
5403.000     1.2142   0.1128
5404.000     1.0502   0.1118
5405.000     1.1343   0.1080
5406.000     1.0046   0.1037
5407.000     0.8832   0.1022
5408.000     1.0610   0.1046
5409.000     1.1223   0.1076
5410.000     1.2386   0.1083
5411.000     1.0660   0.1074
5412.000     1.1178   0.1084
5413.000     1.2433   0.1117
5414.000     1.1655   0.1145
5415.000     0.9704   0.1151
5416.000     1.0701   0.1145
5417.000     1.2328   0.1149
5418.000     1.1536   0.1163
5419.000     1.2266   0.1170
5420.000     1.2930   0.1162
5421.000     1.1796   0.1149
5422.000     1.1643   0.1144
5423.000     1.1364   0.1150
5424.000     1.1787   0.1147
5425.000     1.1176   0.1129
5426.000     1.1858   0.1124
5427.000     1.1228   0.1146
5428.000     1.1780   0.1173
5429.000     0.9282   0.1164
5430.000     1.1093   0.1121
5431.000     0.9921   0.1084
5432.000     1.0251   0.1095
5433.000     1.0894   0.1117
5434.000     1.0869   0.1116
5435.000     1.2010   0.1096
5436.000     1.1271   0.1085
5437.000     1.0758   0.1093
5438.000     1.0175   0.1122
5439.000     0.9123   0.1158
5440.000     1.1922   0.1189
5441.000     1.4298   0.1205
5442.000     1.0589   0.1209
5443.000     1.3366   0.1209
5444.000     1.1495   0.1204
5445.000     1.1007   0.1187
5446.000     1.3218   0.1149
5447.000     1.1807   0.1099
5448.000     1.0079   0.1071
5449.000     1.1350   0.1089
5450.000     1.0365   0.1138
5451.000     1.2957   0.1175
5452.000     1.3737   0.1187
5453.000     1.0924   0.1184
5454.000     1.3401   0.1170
5455.000     1.1097   0.1141
5456.000     1.1276   0.1103
5457.000     1.1900   0.1086
5458.000     1.1587   0.1113
5459.000     1.0029   0.1161
5460.000     1.1536   0.1188
5461.000     1.1393   0.1189
5462.000     1.2070   0.1172
5463.000     1.2298   0.1148
5464.000     1.3421   0.1127
5465.000     1.2678   0.1127
5466.000     1.1103   0.1146
5467.000     1.1704   0.1163
5468.000     1.3093   0.1170
5469.000     1.1521   0.1175
5470.000     0.9394   0.1176
5471.000     1.1192   0.1169
5472.000     1.1031   0.1162
5473.000     1.1748   0.1158
5474.000     1.0638   0.1149
5475.000     1.0303   0.1138
5476.000     1.0669   0.1125
5477.000     0.9729   0.1098
5478.000     1.2413   0.1077
5479.000     1.1694   0.1093
5480.000     0.9305   0.1133
5481.000     1.1344   0.1151
5482.000     1.2660   0.1135
5483.000     1.1949   0.1120
5484.000     1.1569   0.1132
5485.000     1.1561   0.1159
5486.000     1.0997   0.1185
5487.000     1.0399   0.1187
5488.000     1.1800   0.1170
5489.000     1.1842   0.1152
5490.000     1.2265   0.1153
5491.000     1.2547   0.1161
5492.000     1.2479   0.1171
5493.000     0.9839   0.1178
5494.000     1.0104   0.1177
5495.000     1.2843   0.1173
5496.000     1.2839   0.1176
5497.000     1.0779   0.1176
5498.000     1.0689   0.1166
5499.000     1.1757   0.1163
5500.000     1.0055   0.1179
5501.000     1.1047   0.1190
5502.000     1.2363   0.1177
5503.000     1.1204   0.1159
5504.000     1.2205   0.1155
5505.000     1.0144   0.1164
5506.000     1.2620   0.1165
5507.000     1.3818   0.1151
5508.000     1.0617   0.1142
5509.000     1.2367   0.1156
5510.000     1.0305   0.1174
5511.000     1.0684   0.1178
5512.000     1.2473   0.1165
5513.000     1.1387   0.1144
5514.000     1.0574   0.1126
5515.000     1.1442   0.1128
5516.000     0.9895   0.1145
5517.000     1.1594   0.1165
5518.000     1.3426   0.1184
5519.000     1.2953   0.1203
5520.000     1.3191   0.1218
5521.000     1.2608   0.1223
5522.000     1.4104   0.1219
5523.000     1.0270   0.1215
5524.000     1.0945   0.1213
5525.000     1.3182   0.1211
5526.000     1.4241   0.1203
5527.000     1.2641   0.1183
5528.000     1.0754   0.1154
5529.000     1.1129   0.1129
5530.000     1.1378   0.1130
5531.000     1.3821   0.1161
5532.000     1.3958   0.1192
5533.000     1.3562   0.1205
5534.000     1.3481   0.1201
5535.000     0.9694   0.1190
5536.000     1.0429   0.1180
5537.000     1.1815   0.1181
5538.000     1.1726   0.1191
5539.000     1.3829   0.1202
5540.000     1.3234   0.1211
5541.000     1.2766   0.1225
5542.000     1.3027   0.1234
5543.000     1.2262   0.1231
5544.000     1.2066   0.1216
5545.000     1.1394   0.1204
5546.000     1.2167   0.1203
5547.000     1.0659   0.1207
5548.000     1.3456   0.1214
5549.000     1.1954   0.1228
5550.000     1.2479   0.1243
5551.000     1.1614   0.1249
5552.000     1.0864   0.1249
5553.000     1.2186   0.1243
5554.000     1.2187   0.1230
5555.000     1.1832   0.1215
5556.000     1.3963   0.1210
5557.000     1.1954   0.1217
5558.000     1.1383   0.1223
5559.000     1.3100   0.1225
5560.000     1.2371   0.1227
5561.000     1.4755   0.1229
5562.000     1.2467   0.1226
5563.000     1.1429   0.1216
5564.000     1.2718   0.1204
5565.000     1.2635   0.1197
5566.000     0.8658   0.1195
5567.000     1.2437   0.1193
5568.000     1.0490   0.1194
5569.000     1.2152   0.1196
5570.000     1.2367   0.1195
5571.000     1.2680   0.1195
5572.000     1.1077   0.1201
5573.000     1.4189   0.1199
5574.000     1.0799   0.1191
5575.000     0.9311   0.1196
5576.000     1.2808   0.1212
5577.000     1.1156   0.1218
5578.000     1.0721   0.1220
5579.000     1.3183   0.1225
5580.000     1.1148   0.1229
5581.000     1.2807   0.1232
5582.000     1.2038   0.1231
5583.000     1.1029   0.1225
5584.000     1.0270   0.1223
5585.000     0.9316   0.1223
5586.000     1.4215   0.1214
5587.000     1.3078   0.1183
5588.000     1.1809   0.1146
5589.000     1.1562   0.1120
5590.000     1.1831   0.1118
5591.000     1.1684   0.1137
5592.000     1.2928   0.1164
5593.000     1.1729   0.1183
5594.000     1.2918   0.1184
5595.000     0.9921   0.1180
5596.000     1.0800   0.1186
5597.000     1.1851   0.1210
5598.000     1.3561   0.1221
5599.000     1.3217   0.1206
5600.000     1.0887   0.1185
5601.000     1.1224   0.1176
5602.000     1.0861   0.1169
5603.000     1.1184   0.1157
5604.000     1.1728   0.1158
5605.000     1.2142   0.1185
5606.000     1.2255   0.1226
5607.000     1.4857   0.1257
5608.000     1.1929   0.1270
5609.000     1.5060   0.1271
5610.000     1.1458   0.1270
5611.000     1.1757   0.1270
5612.000     1.2952   0.1272
5613.000     1.6368   0.1276
5614.000     1.2238   0.1269
5615.000     1.2552   0.1236
5616.000     0.8147   0.1186
5617.000     1.1824   0.1158
5618.000     1.1289   0.1176
5619.000     1.2882   0.1209
5620.000     1.3931   0.1226
5621.000     1.1434   0.1230
5622.000     1.0534   0.1238
5623.000     1.4818   0.1246
5624.000     1.1916   0.1237
5625.000     1.2334   0.1208
5626.000     1.0989   0.1186
5627.000     1.1653   0.1192
5628.000     1.0986   0.1216
5629.000     1.2642   0.1236
5630.000     1.2327   0.1253
5631.000     1.4181   0.1267
5632.000     1.0795   0.1275
5633.000     1.3387   0.1275
5634.000     1.1759   0.1269
5635.000     1.2130   0.1259
5636.000     1.1755   0.1248
5637.000     1.4857   0.1237
5638.000     1.3199   0.1226
5639.000     1.3069   0.1221
5640.000     1.3567   0.1226
5641.000     1.2079   0.1231
5642.000     1.1287   0.1225
5643.000     1.2000   0.1222
5644.000     1.1341   0.1228
5645.000     1.2028   0.1237
5646.000     1.3148   0.1243
5647.000     1.4714   0.1249
5648.000     1.3148   0.1255
5649.000     1.4123   0.1258
5650.000     1.3978   0.1255
5651.000     1.3480   0.1251
5652.000     1.3363   0.1254
5653.000     1.0300   0.1264
5654.000     1.2610   0.1269
5655.000     1.1861   0.1260
5656.000     1.4625   0.1246
5657.000     1.2104   0.1235
5658.000     1.4372   0.1218
5659.000     0.9541   0.1183
5660.000     1.2584   0.1164
5661.000     1.2840   0.1183
5662.000     1.2326   0.1212
5663.000     1.1881   0.1216
5664.000     1.2981   0.1215
5665.000     1.4356   0.1228
5666.000     1.2061   0.1250
5667.000     1.2347   0.1257
5668.000     1.2804   0.1249
5669.000     1.1852   0.1237
5670.000     1.3611   0.1235
5671.000     1.4182   0.1242
5672.000     1.3494   0.1253
5673.000     1.3088   0.1268
5674.000     1.3486   0.1285
5675.000     1.0489   0.1293
5676.000     1.1767   0.1290
5677.000     1.0722   0.1288
5678.000     1.4390   0.1292
5679.000     1.1325   0.1293
5680.000     1.3104   0.1286
5681.000     1.4977   0.1279
5682.000     1.3824   0.1271
5683.000     1.2722   0.1257
5684.000     1.1531   0.1241
5685.000     1.1610   0.1240
5686.000     1.2783   0.1248
5687.000     1.3011   0.1250
5688.000     1.2211   0.1241
5689.000     1.1058   0.1232
5690.000     1.0336   0.1236
5691.000     1.2097   0.1254
5692.000     1.1861   0.1274
5693.000     1.4492   0.1289
5694.000     1.4882   0.1296
5695.000     1.0372   0.1296
5696.000     1.3135   0.1293
5697.000     1.6256   0.1292
5698.000     1.4752   0.1289
5699.000     1.2260   0.1276
5700.000     1.3892   0.1262
5701.000     1.2741   0.1252
5702.000     1.2733   0.1241
5703.000     1.4549   0.1234
5704.000     1.1368   0.1241
5705.000     1.3983   0.1255
5706.000     1.1706   0.1259
5707.000     1.3106   0.1246
5708.000     1.2126   0.1225
5709.000     1.2128   0.1205
5710.000     1.4897   0.1189
5711.000     1.0982   0.1184
5712.000     1.3872   0.1189
5713.000     1.1137   0.1202
5714.000     1.2331   0.1230
5715.000     1.4213   0.1261
5716.000     1.2898   0.1281
5717.000     1.3255   0.1289
5718.000     1.2854   0.1292
5719.000     1.2949   0.1294
5720.000     1.4166   0.1300
5721.000     1.4038   0.1309
5722.000     1.2298   0.1318
5723.000     1.4274   0.1325
5724.000     1.3830   0.1331
5725.000     1.4434   0.1331
5726.000     1.4135   0.1326
5727.000     1.3959   0.1313
5728.000     1.2325   0.1297
5729.000     1.1976   0.1293
5730.000     1.3995   0.1303
5731.000     1.3416   0.1310
5732.000     1.4632   0.1302
5733.000     1.4240   0.1295
5734.000     1.5120   0.1302
5735.000     1.2830   0.1318
5736.000     1.2953   0.1327
5737.000     1.3400   0.1326
5738.000     1.2152   0.1321
5739.000     1.4183   0.1318
5740.000     1.6112   0.1318
5741.000     1.4267   0.1317
5742.000     1.4957   0.1316
5743.000     1.2407   0.1312
5744.000     1.4350   0.1311
5745.000     1.3624   0.1316
5746.000     1.1356   0.1328
5747.000     1.3220   0.1335
5748.000     1.2302   0.1325
5749.000     1.5103   0.1309
5750.000     1.0068   0.1305
5751.000     1.2412   0.1317
5752.000     1.3498   0.1324
5753.000     1.1942   0.1310
5754.000     1.4541   0.1282
5755.000     1.4132   0.1264
5756.000     1.3338   0.1273
5757.000     1.2392   0.1301
5758.000     1.2040   0.1329
5759.000     1.3944   0.1342
5760.000     1.4105   0.1339
5761.000     1.3725   0.1324
5762.000     1.2905   0.1303
5763.000     1.3430   0.1283
5764.000     1.2276   0.1277
5765.000     1.3481   0.1292
5766.000     1.3724   0.1323
5767.000     1.3242   0.1344
5768.000     1.2280   0.1351
5769.000     1.2767   0.1351
5770.000     1.4135   0.1349
5771.000     1.4159   0.1344
5772.000     1.4668   0.1337
5773.000     1.3172   0.1330
5774.000     1.2264   0.1325
5775.000     1.1614   0.1322
5776.000     1.3392   0.1321
5777.000     1.6384   0.1325
5778.000     1.2340   0.1332
5779.000     1.3726   0.1333
5780.000     1.2227   0.1323
5781.000     1.4590   0.1296
5782.000     1.2554   0.1264
5783.000     1.4934   0.1246
5784.000     1.2836   0.1248
5785.000     1.2271   0.1255
5786.000     1.2377   0.1256
5787.000     1.0146   0.1263
5788.000     1.2751   0.1283
5789.000     1.4195   0.1307
5790.000     1.2622   0.1321
5791.000     1.3396   0.1319
5792.000     1.2079   0.1310
5793.000     1.3010   0.1308
5794.000     1.2395   0.1319
5795.000     1.4696   0.1334
5796.000     1.2183   0.1343
5797.000     1.3222   0.1342
5798.000     1.7598   0.1329
5799.000     1.3642   0.1318
5800.000     1.3216   0.1325
5801.000     1.2624   0.1348
5802.000     1.3341   0.1368
5803.000     1.3540   0.1374
5804.000     1.5616   0.1368
5805.000     1.5279   0.1351
5806.000     1.5493   0.1333
5807.000     1.1445   0.1328
5808.000     1.3077   0.1333
5809.000     1.1124   0.1340
5810.000     1.7476   0.1346
5811.000     1.4159   0.1353
5812.000     1.2364   0.1360
5813.000     1.2919   0.1365
5814.000     1.5207   0.1365
5815.000     0.8265   0.1359
5816.000     1.1916   0.1347
5817.000     1.2242   0.1335
5818.000     1.0697   0.1336
5819.000     1.4600   0.1352
5820.000     1.2457   0.1371
5821.000     1.3341   0.1382
5822.000     1.5047   0.1385
5823.000     1.4174   0.1382
5824.000     1.5349   0.1378
5825.000     1.6626   0.1377
5826.000     1.4195   0.1379
5827.000     1.3928   0.1382
5828.000     1.5740   0.1383
5829.000     1.0343   0.1382
5830.000     1.2876   0.1384
5831.000     1.4024   0.1386
5832.000     1.1319   0.1385
5833.000     1.4523   0.1383
5834.000     1.5474   0.1380
5835.000     1.3120   0.1375
5836.000     1.1950   0.1372
5837.000     1.3465   0.1374
5838.000     1.3692   0.1377
5839.000     1.1960   0.1375
5840.000     1.0899   0.1374
5841.000     1.2169   0.1379
5842.000     1.0933   0.1389
5843.000     1.3097   0.1395
5844.000     1.4638   0.1396
5845.000     1.5453   0.1394
5846.000     1.6195   0.1388
5847.000     1.2902   0.1377
5848.000     1.1896   0.1367
5849.000     1.3602   0.1362
5850.000     1.0614   0.1364
5851.000     1.2491   0.1368
5852.000     1.4625   0.1367
5853.000     1.1730   0.1354
5854.000     1.1906   0.1336
5855.000     1.2394   0.1326
5856.000     1.2675   0.1331
5857.000     1.6795   0.1330
5858.000     1.2362   0.1314
5859.000     1.3226   0.1297
5860.000     1.3161   0.1304
5861.000     1.2780   0.1327
5862.000     1.2922   0.1347
5863.000     1.4566   0.1353
5864.000     1.4273   0.1353
5865.000     1.3218   0.1358
5866.000     1.5517   0.1362
5867.000     1.4026   0.1358
5868.000     1.2810   0.1350
5869.000     1.4455   0.1353
5870.000     1.4888   0.1368
5871.000     1.2536   0.1382
5872.000     1.3977   0.1389
5873.000     1.3725   0.1386
5874.000     1.7397   0.1382
5875.000     1.4865   0.1381
5876.000     1.3297   0.1384
5877.000     1.4411   0.1383
5878.000     1.6603   0.1377
5879.000     1.2054   0.1369
5880.000     1.4777   0.1359
5881.000     1.4889   0.1349
5882.000     1.2959   0.1346
5883.000     1.4990   0.1350
5884.000     1.3099   0.1353
5885.000     1.4031   0.1349
5886.000     1.4617   0.1349
5887.000     1.3011   0.1353
5888.000     1.3289   0.1342
5889.000     1.4099   0.1291
5890.000     1.1419   0.1187
5891.000     0.9104   0.1088
5892.000     0.9314   0.1067
5893.000     1.3070   0.1138
5894.000     1.2310   0.1223
5895.000     1.3514   0.1246
5896.000     1.1562   0.1202
5897.000     0.8938   0.1137
5898.000     1.0634   0.1131
5899.000     1.0537   0.1198
5900.000     1.2764   0.1272
5901.000     1.4497   0.1317
5902.000     1.3280   0.1340
5903.000     1.1443   0.1354
5904.000     1.2976   0.1361
5905.000     1.3900   0.1364
5906.000     1.3686   0.1362
5907.000     1.2901   0.1359
5908.000     1.3309   0.1362
5909.000     1.5087   0.1369
5910.000     1.4198   0.1375
5911.000     1.2141   0.1377
5912.000     1.2014   0.1379
5913.000     1.4521   0.1380
5914.000     1.4833   0.1369
5915.000     1.5165   0.1347
5916.000     1.3780   0.1332
5917.000     1.3920   0.1332
5918.000     1.3839   0.1343
5919.000     1.3179   0.1357
5920.000     1.2036   0.1367
5921.000     1.4898   0.1374
5922.000     1.3134   0.1376
5923.000     1.5322   0.1373
5924.000     1.3228   0.1371
5925.000     1.2318   0.1377
5926.000     1.4404   0.1385
5927.000     1.3745   0.1391
5928.000     1.2385   0.1390
5929.000     1.1339   0.1382
5930.000     1.4300   0.1368
5931.000     1.2843   0.1359
5932.000     1.4132   0.1363
5933.000     1.4177   0.1379
5934.000     1.4731   0.1387
5935.000     1.3623   0.1381
5936.000     1.4082   0.1370
5937.000     1.2702   0.1371
5938.000     1.5852   0.1384
5939.000     1.3375   0.1395
5940.000     1.5712   0.1398
5941.000     1.4201   0.1392
5942.000     1.4870   0.1378
5943.000     1.5903   0.1368
5944.000     1.2777   0.1370
5945.000     1.5198   0.1381
5946.000     1.3336   0.1394
5947.000     1.4657   0.1402
5948.000     1.3728   0.1399
5949.000     1.4265   0.1383
5950.000     1.2089   0.1368
5951.000     1.4592   0.1368
5952.000     1.2668   0.1379
5953.000     1.4474   0.1382
5954.000     1.3913   0.1375
5955.000     1.3498   0.1375
5956.000     1.5170   0.1384
5957.000     1.5623   0.1385
5958.000     1.5992   0.1378
5959.000     1.0059   0.1375
5960.000     1.5527   0.1384
5961.000     1.4283   0.1399
5962.000     1.4130   0.1413
5963.000     1.7079   0.1422
5964.000     1.6606   0.1424
5965.000     1.6673   0.1421
5966.000     1.3602   0.1412
5967.000     1.5477   0.1404
5968.000     1.1403   0.1405
5969.000     1.2959   0.1414
5970.000     1.3757   0.1422
5971.000     1.4080   0.1429
5972.000     1.3022   0.1433
5973.000     1.6818   0.1436
5974.000     1.4422   0.1436
5975.000     1.2845   0.1430
5976.000     1.2563   0.1416
5977.000     1.4347   0.1398
5978.000     1.3513   0.1385
5979.000     1.4648   0.1382
5980.000     1.3263   0.1392
5981.000     1.5001   0.1407
5982.000     1.5956   0.1418
5983.000     1.3175   0.1418
5984.000     1.5193   0.1401
5985.000     1.4277   0.1378
5986.000     1.4319   0.1368
5987.000     1.2162   0.1377
5988.000     1.5562   0.1392
5989.000     1.5842   0.1403
5990.000     1.1961   0.1412
5991.000     1.5281   0.1416
5992.000     2.0156   0.1413
5993.000     1.4161   0.1410
5994.000     1.5999   0.1417
5995.000     1.4609   0.1431
5996.000     1.2186   0.1436
5997.000     1.5968   0.1430
5998.000     1.5450   0.1416
5999.000     1.3962   0.1405
6000.000     1.3753   0.1405
6001.000     1.1522   0.1412
6002.000     1.6529   0.1418
6003.000     1.7252   0.1415
6004.000     1.3545   0.1405
6005.000     1.4653   0.1403
6006.000     1.1196   0.1409
6007.000     1.3551   0.1409
6008.000     1.4714   0.1395
6009.000     1.2939   0.1378
6010.000     1.2964   0.1378
6011.000     1.3083   0.1398
6012.000     1.4377   0.1421
6013.000     1.7323   0.1423
6014.000     1.5536   0.1410
6015.000     1.3437   0.1403
6016.000     1.4877   0.1407
6017.000     1.6646   0.1409
6018.000     1.3685   0.1405
6019.000     1.3689   0.1405
6020.000     1.5402   0.1403
6021.000     1.3997   0.1395
6022.000     1.4715   0.1387
6023.000     1.4008   0.1390
6024.000     1.3740   0.1398
6025.000     1.8342   0.1405
6026.000     1.2943   0.1413
6027.000     1.3732   0.1423
6028.000     1.5185   0.1429
6029.000     1.5594   0.1434
6030.000     1.4332   0.1441
6031.000     1.4075   0.1447
6032.000     1.4557   0.1449
6033.000     1.4074   0.1451
6034.000     1.5383   0.1456
6035.000     1.2790   0.1460
6036.000     1.4172   0.1462
6037.000     1.5325   0.1463
6038.000     1.5601   0.1465
6039.000     1.4615   0.1465
6040.000     1.5773   0.1461
6041.000     1.1122   0.1455
6042.000     1.4476   0.1449
6043.000     1.3392   0.1449
6044.000     1.5444   0.1454
6045.000     1.5389   0.1463
6046.000     1.7286   0.1471
6047.000     1.3501   0.1474
6048.000     1.2114   0.1476
6049.000     1.6841   0.1476
6050.000     1.4819   0.1476
6051.000     1.4251   0.1477
6052.000     1.5949   0.1478
6053.000     1.1974   0.1477
6054.000     1.3822   0.1471
6055.000     1.4713   0.1463
6056.000     1.4481   0.1456
6057.000     1.4684   0.1448
6058.000     1.5539   0.1444
6059.000     1.4586   0.1449
6060.000     1.3510   0.1460
6061.000     1.3706   0.1471
6062.000     1.5379   0.1476
6063.000     1.6695   0.1471
6064.000     1.4322   0.1458
6065.000     1.7047   0.1441
6066.000     1.3652   0.1422
6067.000     1.3595   0.1417
6068.000     1.4421   0.1437
6069.000     1.8067   0.1468
6070.000     1.3929   0.1488
6071.000     1.3658   0.1495
6072.000     1.6559   0.1496
6073.000     1.5885   0.1497
6074.000     1.3495   0.1499
6075.000     1.5679   0.1499
6076.000     1.6402   0.1497
6077.000     1.4976   0.1490
6078.000     1.5617   0.1478
6079.000     1.4978   0.1461
6080.000     1.4199   0.1448
6081.000     1.3498   0.1446
6082.000     1.4988   0.1449
6083.000     1.4650   0.1446
6084.000     1.3461   0.1443
6085.000     1.5246   0.1445
6086.000     1.3774   0.1448
6087.000     1.4880   0.1449
6088.000     1.7290   0.1455
6089.000     1.3215   0.1462
6090.000     1.4312   0.1460
6091.000     1.4957   0.1449
6092.000     1.3865   0.1439
6093.000     1.5407   0.1439
6094.000     1.3401   0.1446
6095.000     1.2135   0.1456
6096.000     1.3093   0.1470
6097.000     1.4047   0.1479
6098.000     1.6850   0.1478
6099.000     1.5499   0.1477
6100.000     1.2251   0.1482
6101.000     1.3033   0.1485
6102.000     1.4819   0.1469
6103.000     1.5511   0.1430
6104.000     1.2575   0.1393
6105.000     1.4456   0.1398
6106.000     1.3497   0.1436
6107.000     1.4711   0.1469
6108.000     1.4614   0.1477
6109.000     1.7138   0.1470
6110.000     1.3625   0.1470
6111.000     1.4060   0.1477
6112.000     1.6696   0.1479
6113.000     1.4301   0.1477
6114.000     1.6149   0.1482
6115.000     1.3194   0.1493
6116.000     1.3328   0.1497
6117.000     1.5513   0.1490
6118.000     1.4872   0.1483
6119.000     1.2848   0.1482
6120.000     1.4796   0.1481
6121.000     1.6723   0.1466
6122.000     1.5477   0.1441
6123.000     1.5434   0.1416
6124.000     1.3077   0.1413
6125.000     1.4918   0.1441
6126.000     1.5733   0.1469
6127.000     1.3689   0.1475
6128.000     1.5379   0.1468
6129.000     1.2872   0.1460
6130.000     1.5006   0.1461
6131.000     1.4101   0.1471
6132.000     1.7790   0.1485
6133.000     1.4312   0.1495
6134.000     1.5000   0.1499
6135.000     1.3586   0.1491
6136.000     1.6649   0.1464
6137.000     1.2174   0.1410
6138.000     1.2872   0.1357
6139.000     1.1072   0.1350
6140.000     1.2159   0.1396
6141.000     1.5494   0.1449
6142.000     1.5336   0.1463
6143.000     1.5732   0.1450
6144.000     1.5698   0.1451
6145.000     1.5304   0.1474
6146.000     1.5177   0.1496
6147.000     1.1284   0.1505
6148.000     1.5002   0.1500
6149.000     1.3757   0.1489
6150.000     1.5571   0.1475
6151.000     1.5615   0.1467
6152.000     1.4098   0.1468
6153.000     1.3608   0.1479
6154.000     1.6491   0.1490
6155.000     1.4807   0.1491
6156.000     1.3742   0.1484
6157.000     1.6208   0.1479
6158.000     1.5516   0.1481
6159.000     1.6810   0.1483
6160.000     1.4060   0.1478
6161.000     1.5160   0.1455
6162.000     1.4782   0.1409
6163.000     1.4468   0.1354
6164.000     1.0661   0.1329
6165.000     1.1925   0.1352
6166.000     1.5325   0.1395
6167.000     1.6338   0.1426
6168.000     1.4350   0.1440
6169.000     1.4354   0.1436
6170.000     1.6053   0.1410
6171.000     1.3802   0.1385
6172.000     1.4573   0.1393
6173.000     1.2758   0.1424
6174.000     1.3137   0.1449
6175.000     1.3428   0.1457
6176.000     1.5572   0.1458
6177.000     1.5243   0.1458
6178.000     1.7412   0.1458
6179.000     1.4428   0.1465
6180.000     1.3682   0.1474
6181.000     1.5336   0.1477
6182.000     1.6434   0.1479
6183.000     1.1680   0.1487
6184.000     1.7142   0.1495
6185.000     1.3908   0.1497
6186.000     1.4236   0.1492
6187.000     1.4555   0.1480
6188.000     1.4004   0.1464
6189.000     1.3665   0.1452
6190.000     1.3034   0.1444
6191.000     1.5981   0.1430
6192.000     1.4291   0.1406
6193.000     1.4293   0.1390
6194.000     1.4183   0.1410
6195.000     1.2839   0.1449
6196.000     1.6668   0.1478
6197.000     1.5040   0.1490
6198.000     1.4811   0.1495
6199.000     1.3550   0.1492
6200.000     1.5385   0.1472
6201.000     1.5233   0.1452
6202.000     1.2030   0.1451
6203.000     1.6420   0.1468
6204.000     1.6066   0.1487
6205.000     1.6653   0.1496
6206.000     1.5487   0.1498
6207.000     1.3388   0.1500
6208.000     1.5205   0.1504
6209.000     1.6031   0.1507
6210.000     1.5252   0.1506
6211.000     1.5686   0.1502
6212.000     1.4799   0.1494
6213.000     1.4630   0.1480
6214.000     1.6752   0.1457
6215.000     1.7330   0.1428
6216.000     1.3353   0.1410
6217.000     1.2764   0.1414
6218.000     1.8138   0.1434
6219.000     1.4759   0.1451
6220.000     1.3914   0.1449
6221.000     1.1924   0.1436
6222.000     1.7889   0.1433
6223.000     1.4663   0.1445
6224.000     1.5743   0.1460
6225.000     1.6292   0.1468
6226.000     1.5060   0.1470
6227.000     1.5472   0.1473
6228.000     1.6508   0.1477
6229.000     1.4243   0.1476
6230.000     1.4779   0.1459
6231.000     1.7840   0.1428
6232.000     1.3564   0.1398
6233.000     1.2588   0.1394
6234.000     1.4108   0.1416
6235.000     1.6306   0.1453
6236.000     1.2449   0.1486
6237.000     1.6140   0.1502
6238.000     1.3307   0.1497
6239.000     1.5503   0.1479
6240.000     1.3675   0.1460
6241.000     1.2321   0.1446
6242.000     1.4164   0.1443
6243.000     1.3134   0.1442
6244.000     1.3102   0.1434
6245.000     1.4722   0.1425
6246.000     1.5160   0.1421
6247.000     1.4451   0.1424
6248.000     1.7541   0.1434
6249.000     1.4436   0.1456
6250.000     1.3305   0.1479
6251.000     1.2335   0.1491
6252.000     1.4700   0.1483
6253.000     1.6260   0.1454
6254.000     1.4798   0.1421
6255.000     1.2558   0.1408
6256.000     1.3985   0.1411
6257.000     1.2724   0.1412
6258.000     1.4060   0.1403
6259.000     1.4401   0.1391
6260.000     1.5545   0.1392
6261.000     1.3527   0.1415
6262.000     1.4153   0.1443
6263.000     1.4715   0.1467
6264.000     1.4511   0.1487
6265.000     1.3225   0.1494
6266.000     1.4055   0.1485
6267.000     1.1457   0.1475
6268.000     1.2899   0.1480
6269.000     1.3802   0.1490
6270.000     1.5107   0.1491
6271.000     1.1471   0.1487
6272.000     1.3512   0.1487
6273.000     1.3387   0.1495
6274.000     1.9018   0.1504
6275.000     1.5853   0.1508
6276.000     1.5776   0.1508
6277.000     1.6600   0.1509
6278.000     1.3990   0.1511
6279.000     1.6590   0.1508
6280.000     1.5429   0.1497
6281.000     1.5061   0.1481
6282.000     1.5776   0.1470
6283.000     1.6566   0.1473
6284.000     1.2067   0.1485
6285.000     1.4880   0.1497
6286.000     1.9367   0.1503
6287.000     1.7120   0.1509
6288.000     1.5657   0.1520
6289.000     1.4475   0.1534
6290.000     1.4420   0.1541
6291.000     1.8387   0.1538
6292.000     1.5978   0.1525
6293.000     1.3756   0.1513
6294.000     1.6275   0.1510
6295.000     1.4433   0.1513
6296.000     1.4005   0.1515
6297.000     1.4388   0.1506
6298.000     1.3669   0.1488
6299.000     1.2386   0.1477
6300.000     1.5881   0.1482
6301.000     1.4932   0.1488
6302.000     1.1696   0.1479
6303.000     0.9968   0.1467
6304.000     1.5538   0.1468
6305.000     1.7053   0.1486
6306.000     1.8972   0.1506
6307.000     1.4953   0.1519
6308.000     1.5665   0.1531
6309.000     1.3656   0.1542
6310.000     1.2667   0.1545
6311.000     1.5635   0.1537
6312.000     1.4227   0.1523
6313.000     1.5446   0.1514
6314.000     1.5714   0.1512
6315.000     1.2889   0.1506
6316.000     1.6548   0.1494
6317.000     1.5778   0.1483
6318.000     1.7368   0.1479
6319.000     1.5987   0.1473
6320.000     1.3648   0.1468
6321.000     1.4017   0.1480
6322.000     1.4894   0.1499
6323.000     1.3328   0.1511
6324.000     1.6302   0.1516
6325.000     1.5486   0.1525
6326.000     1.8568   0.1540
6327.000     1.4705   0.1547
6328.000     1.4741   0.1547
6329.000     1.8101   0.1545
6330.000     1.6768   0.1544
6331.000     1.3561   0.1542
6332.000     1.4124   0.1540
6333.000     1.6380   0.1547
6334.000     1.4856   0.1555
6335.000     1.5250   0.1548
6336.000     1.4608   0.1521
6337.000     1.8532   0.1490
6338.000     1.2912   0.1480
6339.000     1.3084   0.1494
6340.000     1.4979   0.1516
6341.000     1.6060   0.1534
6342.000     1.4865   0.1548
6343.000     1.2979   0.1550
6344.000     1.5002   0.1539
6345.000     1.3779   0.1521
6346.000     1.6971   0.1512
6347.000     1.6848   0.1520
6348.000     1.4204   0.1533
6349.000     1.4926   0.1544
6350.000     1.7033   0.1554
6351.000     1.7459   0.1562
6352.000     1.4321   0.1568
6353.000     1.8021   0.1569
6354.000     1.7194   0.1563
6355.000     1.8733   0.1548
6356.000     1.6818   0.1532
6357.000     1.2736   0.1526
6358.000     1.5472   0.1528
6359.000     1.5705   0.1520
6360.000     1.5669   0.1503
6361.000     1.6089   0.1493
6362.000     1.4551   0.1493
6363.000     1.5311   0.1491
6364.000     1.4537   0.1488
6365.000     1.1972   0.1493
6366.000     1.4617   0.1506
6367.000     1.3557   0.1522
6368.000     1.6229   0.1538
6369.000     1.8887   0.1552
6370.000     1.5752   0.1560
6371.000     1.5572   0.1560
6372.000     1.5465   0.1559
6373.000     1.5322   0.1564
6374.000     1.5586   0.1574
6375.000     1.5804   0.1583
6376.000     1.7377   0.1585
6377.000     1.5759   0.1585
6378.000     1.5364   0.1582
6379.000     1.4241   0.1575
6380.000     1.5018   0.1566
6381.000     1.6016   0.1559
6382.000     1.7357   0.1558
6383.000     1.5971   0.1564
6384.000     1.6383   0.1572
6385.000     1.6118   0.1577
6386.000     1.3459   0.1577
6387.000     1.5368   0.1580
6388.000     1.6952   0.1586
6389.000     1.6853   0.1590
6390.000     1.6352   0.1592
6391.000     1.5462   0.1590
6392.000     1.7288   0.1583
6393.000     1.4953   0.1564
6394.000     1.8109   0.1534
6395.000     1.5245   0.1514
6396.000     1.6826   0.1526
6397.000     1.4649   0.1562
6398.000     1.5716   0.1590
6399.000     1.6816   0.1591
6400.000     1.5546   0.1562
6401.000     1.4340   0.1523
6402.000     1.8361   0.1511
6403.000     1.6129   0.1540
6404.000     1.6928   0.1581
6405.000     1.4264   0.1605
6406.000     1.5719   0.1608
6407.000     1.5291   0.1598
6408.000     1.5227   0.1579
6409.000     1.4589   0.1562
6410.000     1.7184   0.1559
6411.000     1.5245   0.1566
6412.000     1.8302   0.1566
6413.000     1.6197   0.1555
6414.000     1.5219   0.1554
6415.000     1.5008   0.1565
6416.000     1.2385   0.1577
6417.000     1.7112   0.1585
6418.000     1.2659   0.1589
6419.000     1.6637   0.1586
6420.000     1.5767   0.1575
6421.000     1.5524   0.1553
6422.000     1.6520   0.1536
6423.000     1.6523   0.1540
6424.000     1.4770   0.1567
6425.000     1.7877   0.1596
6426.000     1.5518   0.1612
6427.000     1.6502   0.1616
6428.000     1.6848   0.1620
6429.000     1.7629   0.1621
6430.000     1.7270   0.1609
6431.000     1.7240   0.1582
6432.000     1.6259   0.1553
6433.000     1.3469   0.1543
6434.000     1.5374   0.1559
6435.000     1.7271   0.1584
6436.000     1.2722   0.1604
6437.000     1.5305   0.1612
6438.000     1.4210   0.1606
6439.000     1.8039   0.1583
6440.000     1.6635   0.1556
6441.000     1.4900   0.1550
6442.000     1.8336   0.1578
6443.000     1.6092   0.1613
6444.000     1.8756   0.1632
6445.000     1.6021   0.1636
6446.000     1.6121   0.1636
6447.000     1.5518   0.1637
6448.000     1.8785   0.1635
6449.000     1.7311   0.1616
6450.000     1.5799   0.1571
6451.000     1.5632   0.1520
6452.000     1.6079   0.1506
6453.000     1.6018   0.1542
6454.000     2.0935   0.1586
6455.000     1.7412   0.1606
6456.000     1.7442   0.1596
6457.000     1.5388   0.1576
6458.000     1.5351   0.1571
6459.000     1.5738   0.1591
6460.000     1.3848   0.1619
6461.000     1.6859   0.1632
6462.000     1.5725   0.1616
6463.000     1.4413   0.1575
6464.000     1.5590   0.1537
6465.000     1.6282   0.1535
6466.000     1.6573   0.1567
6467.000     1.7493   0.1603
6468.000     1.3197   0.1624
6469.000     1.5703   0.1628
6470.000     1.5779   0.1620
6471.000     1.5631   0.1606
6472.000     1.7272   0.1592
6473.000     1.2691   0.1585
6474.000     1.5754   0.1590
6475.000     1.5402   0.1601
6476.000     1.9662   0.1603
6477.000     1.4439   0.1599
6478.000     1.5684   0.1603
6479.000     1.8172   0.1613
6480.000     1.3732   0.1621
6481.000     1.9277   0.1619
6482.000     1.7235   0.1603
6483.000     1.5683   0.1577
6484.000     1.7751   0.1561
6485.000     1.5895   0.1568
6486.000     1.3476   0.1590
6487.000     1.5149   0.1610
6488.000     1.4605   0.1620
6489.000     1.7109   0.1623
6490.000     1.7458   0.1620
6491.000     1.5590   0.1609
6492.000     1.5842   0.1594
6493.000     1.7112   0.1574
6494.000     1.4214   0.1541
6495.000     1.7069   0.1491
6496.000     1.4898   0.1444
6497.000     1.4117   0.1424
6498.000     1.2572   0.1435
6499.000     1.5092   0.1464
6500.000     1.5705   0.1494
6501.000     1.4337   0.1520
6502.000     1.7125   0.1548
6503.000     1.5908   0.1576
6504.000     1.6942   0.1597
6505.000     1.7628   0.1610
6506.000     1.1809   0.1617
6507.000     1.4610   0.1622
6508.000     1.6989   0.1623
6509.000     1.4018   0.1619
6510.000     1.6144   0.1616
6511.000     1.9827   0.1618
6512.000     1.6286   0.1624
6513.000     1.6903   0.1629
6514.000     1.6453   0.1629
6515.000     1.6353   0.1623
6516.000     1.3936   0.1611
6517.000     1.5644   0.1597
6518.000     1.8180   0.1585
6519.000     1.6157   0.1578
6520.000     1.7337   0.1579
6521.000     1.6875   0.1592
6522.000     1.8698   0.1610
6523.000     1.6269   0.1623
6524.000     1.6560   0.1629
6525.000     1.4504   0.1630
6526.000     1.5592   0.1629
6527.000     1.9627   0.1621
6528.000     1.6713   0.1609
6529.000     1.6038   0.1603
6530.000     1.4025   0.1608
6531.000     1.6956   0.1617
6532.000     1.6064   0.1617
6533.000     1.4651   0.1609
6534.000     1.4886   0.1600
6535.000     1.6914   0.1599
6536.000     1.7021   0.1608
6537.000     1.4352   0.1619
6538.000     1.8323   0.1624
6539.000     1.5974   0.1623
6540.000     1.7693   0.1625
6541.000     1.4908   0.1629
6542.000     1.4736   0.1631
6543.000     1.7469   0.1625
6544.000     1.7311   0.1615
6545.000     1.6071   0.1603
6546.000     1.4779   0.1588
6547.000     1.4115   0.1567
6548.000     1.4279   0.1555
6549.000     1.3412   0.1562
6550.000     1.7488   0.1579
6551.000     1.7133   0.1589
6552.000     1.5855   0.1586
6553.000     1.7195   0.1577
6554.000     1.3661   0.1565
6555.000     1.5309   0.1548
6556.000     1.5297   0.1528
6557.000     1.7395   0.1513
6558.000     1.6741   0.1509
6559.000     1.5573   0.1509
6560.000     1.4357   0.1498
6561.000     1.5230   0.1458
6562.000     1.4015   0.1366
6563.000     1.2170   0.1221
6564.000     0.8467   0.1090
6565.000     1.2010   0.1076
6566.000     1.3000   0.1203
6567.000     1.6666   0.1362
6568.000     1.3155   0.1468
6569.000     1.2645   0.1515
6570.000     1.5348   0.1528
6571.000     1.5828   0.1531
6572.000     1.7300   0.1537
6573.000     1.6253   0.1540
6574.000     1.5001   0.1533
6575.000     1.2711   0.1523
6576.000     1.6019   0.1525
6577.000     1.6382   0.1546
6578.000     1.4924   0.1578
6579.000     1.4386   0.1605
6580.000     1.5651   0.1615
6581.000     1.7725   0.1611
6582.000     1.4253   0.1602
6583.000     1.7419   0.1599
6584.000     1.7017   0.1607
6585.000     1.9312   0.1616
6586.000     1.8723   0.1618
6587.000     1.4681   0.1613
6588.000     1.4627   0.1612
6589.000     1.7241   0.1619
6590.000     1.7277   0.1630
6591.000     1.6115   0.1635
6592.000     1.2802   0.1626
6593.000     1.4586   0.1597
6594.000     1.7892   0.1556
6595.000     1.5679   0.1534
6596.000     1.1705   0.1554
6597.000     1.2440   0.1590
6598.000     1.5837   0.1612
6599.000     1.7183   0.1614
6600.000     1.6280   0.1612
6601.000     1.4603   0.1619
6602.000     1.4463   0.1636
6603.000     1.6311   0.1649
6604.000     1.5681   0.1650
6605.000     1.5415   0.1640
6606.000     1.6839   0.1626
6607.000     1.7879   0.1616
6608.000     1.4038   0.1610
6609.000     1.8956   0.1602
6610.000     1.5693   0.1591
6611.000     1.6213   0.1592
6612.000     1.5668   0.1612
6613.000     1.4236   0.1634
6614.000     1.6202   0.1643
6615.000     1.9262   0.1639
6616.000     1.6388   0.1639
6617.000     1.5554   0.1647
6618.000     1.6609   0.1655
6619.000     1.7761   0.1658
6620.000     1.5832   0.1660
6621.000     1.8518   0.1663
6622.000     1.7402   0.1666
6623.000     1.7062   0.1665
6624.000     1.5813   0.1655
6625.000     1.6137   0.1639
6626.000     1.6237   0.1624
6627.000     1.7046   0.1622
6628.000     1.7301   0.1631
6629.000     1.7465   0.1641
6630.000     1.6647   0.1644
6631.000     1.7898   0.1642
6632.000     1.5182   0.1636
6633.000     1.5251   0.1626
6634.000     1.7050   0.1610
6635.000     1.5324   0.1596
6636.000     1.6752   0.1598
6637.000     1.7333   0.1617
6638.000     1.8069   0.1638
6639.000     1.5970   0.1650
6640.000     1.7014   0.1650
6641.000     1.7444   0.1647
6642.000     1.7816   0.1647
6643.000     1.4807   0.1644
6644.000     1.9020   0.1632
6645.000     1.2977   0.1616
6646.000     1.5901   0.1614
6647.000     1.5569   0.1626
6648.000     1.5550   0.1638
6649.000     1.5900   0.1643
6650.000     1.6534   0.1648
6651.000     1.7800   0.1654
6652.000     1.9211   0.1656
6653.000     1.2503   0.1656
6654.000     1.7855   0.1655
6655.000     1.5580   0.1656
6656.000     1.6196   0.1657
6657.000     1.9064   0.1656
6658.000     1.6173   0.1656
6659.000     1.7279   0.1658
6660.000     1.7952   0.1660
6661.000     1.7063   0.1658
6662.000     1.8320   0.1651
6663.000     1.7084   0.1637
6664.000     1.5942   0.1618
6665.000     1.8203   0.1604
6666.000     1.6673   0.1606
6667.000     1.5893   0.1619
6668.000     1.5654   0.1628
6669.000     1.4597   0.1632
6670.000     1.8085   0.1639
6671.000     1.8836   0.1651
6672.000     1.9121   0.1662
6673.000     1.6432   0.1667
6674.000     1.8674   0.1668
6675.000     1.4628   0.1668
6676.000     1.5824   0.1665
6677.000     1.5833   0.1656
6678.000     1.4214   0.1632
6679.000     1.8383   0.1601
6680.000     1.6008   0.1587
6681.000     1.8426   0.1602
6682.000     1.8776   0.1628
6683.000     1.9725   0.1646
6684.000     1.9002   0.1656
6685.000     1.7466   0.1662
6686.000     1.3742   0.1666
6687.000     1.6105   0.1667
6688.000     1.7101   0.1666
6689.000     1.8856   0.1662
6690.000     1.5766   0.1661
6691.000     1.6437   0.1662
6692.000     1.8488   0.1664
6693.000     1.4570   0.1667
6694.000     1.6227   0.1668
6695.000     1.7473   0.1666
6696.000     1.8381   0.1659
6697.000     1.6752   0.1646
6698.000     1.8738   0.1635
6699.000     1.4609   0.1635
6700.000     1.3297   0.1644
6701.000     1.7596   0.1655
6702.000     1.7605   0.1665
6703.000     1.3678   0.1667
6704.000     1.5416   0.1659
6705.000     1.5409   0.1647
6706.000     1.4680   0.1640
6707.000     1.8664   0.1643
6708.000     1.3120   0.1651
6709.000     1.7899   0.1657
6710.000     1.8955   0.1658
6711.000     1.6331   0.1656
6712.000     1.7749   0.1654
6713.000     1.4699   0.1653
6714.000     1.7645   0.1651
6715.000     1.4858   0.1646
6716.000     1.8901   0.1636
6717.000     1.7682   0.1621
6718.000     1.5820   0.1604
6719.000     1.3701   0.1594
6720.000     1.7644   0.1605
6721.000     1.5479   0.1630
6722.000     1.7007   0.1650
6723.000     1.6200   0.1658
6724.000     1.7241   0.1661
6725.000     1.5897   0.1663
6726.000     1.3256   0.1663
6727.000     1.6558   0.1658
6728.000     1.8657   0.1655
6729.000     1.7286   0.1658
6730.000     1.5498   0.1666
6731.000     1.5092   0.1673
6732.000     1.6051   0.1676
6733.000     1.7863   0.1674
6734.000     1.4152   0.1670
6735.000     1.9389   0.1667
6736.000     1.5611   0.1669
6737.000     1.6182   0.1672
6738.000     1.9562   0.1671
6739.000     1.6005   0.1663
6740.000     1.5986   0.1654
6741.000     1.4471   0.1650
6742.000     1.4606   0.1652
6743.000     1.9689   0.1653
6744.000     1.7397   0.1650
6745.000     1.7524   0.1648
6746.000     1.6466   0.1652
6747.000     1.1504   0.1658
6748.000     2.0463   0.1660
6749.000     1.3747   0.1657
6750.000     1.6242   0.1651
6751.000     1.5325   0.1644
6752.000     1.7545   0.1641
6753.000     1.5087   0.1643
6754.000     1.5482   0.1647
6755.000     1.6360   0.1652
6756.000     1.8122   0.1662
6757.000     1.6229   0.1674
6758.000     1.5999   0.1682
6759.000     1.3924   0.1688
6760.000     1.4007   0.1693
6761.000     1.4518   0.1696
6762.000     1.6215   0.1697
6763.000     1.8012   0.1696
6764.000     1.5410   0.1694
6765.000     1.8650   0.1693
6766.000     1.8948   0.1690
6767.000     1.6454   0.1680
6768.000     1.8514   0.1666
6769.000     1.5612   0.1653
6770.000     1.2739   0.1652
6771.000     1.8896   0.1657
6772.000     1.5225   0.1659
6773.000     1.9115   0.1659
6774.000     1.5157   0.1666
6775.000     1.3012   0.1679
6776.000     1.7269   0.1693
6777.000     1.3817   0.1702
6778.000     1.8328   0.1706
6779.000     1.4842   0.1707
6780.000     1.6643   0.1710
6781.000     1.9575   0.1712
6782.000     1.5896   0.1709
6783.000     1.8399   0.1699
6784.000     1.8469   0.1683
6785.000     1.5474   0.1667
6786.000     1.6759   0.1659
6787.000     1.8481   0.1662
6788.000     1.6637   0.1672
6789.000     1.8584   0.1683
6790.000     1.9199   0.1692
6791.000     1.8652   0.1697
6792.000     1.8468   0.1698
6793.000     1.8959   0.1697
6794.000     1.5715   0.1693
6795.000     1.7053   0.1687
6796.000     1.5287   0.1684
6797.000     1.6321   0.1685
6798.000     1.6176   0.1689
6799.000     1.8193   0.1693
6800.000     1.6412   0.1696
6801.000     1.8591   0.1700
6802.000     1.2410   0.1705
6803.000     1.9932   0.1707
6804.000     1.6035   0.1706
6805.000     1.3543   0.1702
6806.000     1.8032   0.1699
6807.000     1.8339   0.1697
6808.000     1.7956   0.1695
6809.000     2.0275   0.1695
6810.000     1.6708   0.1697
6811.000     1.6828   0.1699
6812.000     1.7175   0.1699
6813.000     1.5187   0.1701
6814.000     1.5364   0.1704
6815.000     1.9127   0.1702
6816.000     1.7583   0.1696
6817.000     1.5929   0.1695
6818.000     1.7268   0.1703
6819.000     1.8869   0.1711
6820.000     1.6173   0.1712
6821.000     1.6911   0.1707
6822.000     1.8554   0.1705
6823.000     1.8897   0.1709
6824.000     1.2969   0.1718
6825.000     1.5349   0.1725
6826.000     1.9264   0.1729
6827.000     1.5518   0.1729
6828.000     1.7229   0.1723
6829.000     2.0002   0.1712
6830.000     1.7968   0.1702
6831.000     1.7480   0.1704
6832.000     1.7573   0.1715
6833.000     1.7227   0.1723
6834.000     1.7746   0.1726
6835.000     1.9339   0.1728
6836.000     1.4983   0.1731
6837.000     1.7115   0.1733
6838.000     1.7663   0.1729
6839.000     1.8034   0.1718
6840.000     1.7342   0.1703
6841.000     1.6080   0.1687
6842.000     1.9295   0.1671
6843.000     1.8038   0.1660
6844.000     1.6974   0.1660
6845.000     1.7430   0.1673
6846.000     2.0229   0.1694
6847.000     1.7472   0.1711
6848.000     1.7983   0.1720
6849.000     1.5619   0.1724
6850.000     1.8565   0.1725
6851.000     1.7283   0.1726
6852.000     1.5199   0.1726
6853.000     2.1336   0.1727
6854.000     1.6984   0.1727
6855.000     1.8617   0.1719
6856.000     1.5544   0.1704
6857.000     1.9851   0.1691
6858.000     1.8047   0.1689
6859.000     1.4869   0.1695
6860.000     1.5840   0.1702
6861.000     1.4384   0.1704
6862.000     1.6113   0.1699
6863.000     2.0708   0.1693
6864.000     1.2849   0.1699
6865.000     1.3381   0.1716
6866.000     1.5719   0.1730
6867.000     1.6675   0.1733
6868.000     1.7316   0.1725
6869.000     1.4934   0.1714
6870.000     1.8215   0.1707
6871.000     1.6970   0.1707
6872.000     1.4614   0.1709
6873.000     1.7830   0.1708
6874.000     1.7376   0.1705
6875.000     1.6917   0.1707
6876.000     1.4407   0.1714
6877.000     1.7336   0.1721
6878.000     1.5579   0.1728
6879.000     1.5019   0.1736
6880.000     1.7181   0.1741
6881.000     1.6734   0.1739
6882.000     1.8945   0.1731
6883.000     1.6893   0.1718
6884.000     2.2223   0.1708
6885.000     2.1652   0.1710
6886.000     1.5633   0.1719
6887.000     1.5320   0.1726
6888.000     1.8461   0.1730
6889.000     1.6695   0.1738
6890.000     1.8550   0.1748
6891.000     1.4940   0.1755
6892.000     1.8812   0.1759
6893.000     1.8646   0.1761
6894.000     1.7299   0.1760
6895.000     1.8559   0.1757
6896.000     1.5708   0.1752
6897.000     1.6907   0.1749
6898.000     1.6147   0.1748
6899.000     1.8947   0.1749
6900.000     1.5428   0.1750
6901.000     1.4993   0.1750
6902.000     1.6457   0.1750
6903.000     2.0577   0.1754
6904.000     1.6601   0.1762
6905.000     1.7108   0.1768
6906.000     1.5976   0.1767
6907.000     1.9178   0.1764
6908.000     1.6642   0.1766
6909.000     1.6050   0.1772
6910.000     1.8551   0.1776
6911.000     1.7090   0.1774
6912.000     1.6096   0.1767
6913.000     1.7996   0.1759
6914.000     1.8460   0.1750
6915.000     1.8773   0.1737
6916.000     1.7421   0.1725
6917.000     1.8762   0.1723
6918.000     1.6172   0.1729
6919.000     1.8086   0.1739
6920.000     1.5323   0.1751
6921.000     1.4687   0.1762
6922.000     1.6920   0.1772
6923.000     1.8635   0.1779
6924.000     1.7898   0.1777
6925.000     1.6561   0.1763
6926.000     1.4168   0.1744
6927.000     1.6154   0.1734
6928.000     1.9474   0.1739
6929.000     1.8999   0.1754
6930.000     1.7606   0.1765
6931.000     1.8038   0.1770
6932.000     1.6548   0.1769
6933.000     1.8576   0.1763
6934.000     1.8203   0.1755
6935.000     1.4874   0.1750
6936.000     1.6137   0.1753
6937.000     2.0769   0.1761
6938.000     1.8142   0.1767
6939.000     1.9566   0.1768
6940.000     1.8252   0.1768
6941.000     1.5972   0.1772
6942.000     1.8902   0.1777
6943.000     1.8858   0.1778
6944.000     1.9550   0.1771
6945.000     1.9080   0.1757
6946.000     1.5637   0.1739
6947.000     1.8322   0.1731
6948.000     2.0060   0.1741
6949.000     1.4928   0.1759
6950.000     1.7931   0.1773
6951.000     1.7831   0.1776
6952.000     1.5857   0.1770
6953.000     1.6774   0.1761
6954.000     1.8367   0.1756
6955.000     2.0924   0.1756
6956.000     1.7394   0.1760
6957.000     1.7824   0.1767
6958.000     1.6868   0.1776
6959.000     1.4106   0.1784
6960.000     1.7559   0.1788
6961.000     1.6336   0.1789
6962.000     1.9697   0.1790
6963.000     1.4950   0.1792
6964.000     1.6007   0.1796
6965.000     1.9001   0.1798
6966.000     1.7599   0.1797
6967.000     1.8401   0.1793
6968.000     1.9061   0.1794
6969.000     1.6733   0.1801
6970.000     1.8736   0.1808
6971.000     1.7686   0.1807
6972.000     1.6850   0.1800
6973.000     1.7590   0.1795
6974.000     2.0177   0.1797
6975.000     1.5542   0.1798
6976.000     2.3942   0.1792
6977.000     2.0322   0.1776
6978.000     1.6483   0.1751
6979.000     1.6944   0.1722
6980.000     1.6411   0.1700
6981.000     1.7379   0.1703
6982.000     1.7560   0.1733
6983.000     2.0041   0.1769
6984.000     2.0695   0.1795
6985.000     2.0077   0.1808
6986.000     1.7806   0.1812
6987.000     1.8425   0.1812
6988.000     1.6850   0.1809
6989.000     1.6917   0.1803
6990.000     2.0612   0.1795
6991.000     1.8983   0.1792
6992.000     1.6304   0.1798
6993.000     2.0058   0.1808
6994.000     1.8470   0.1815
6995.000     2.0644   0.1815
6996.000     1.7162   0.1814
6997.000     1.7249   0.1814
6998.000     1.8876   0.1815
6999.000     1.8897   0.1809
7000.000     1.7535   0.1796
