wavelength(AA)   flux(mJy)   unc(mJy)   resolution(km/s)
4000.000     0.4480   0.0421   300.0
4001.000     0.4188   0.0433   299.9
4002.000     0.3987   0.0436   299.9
4003.000     0.4631   0.0437   299.8
4004.000     0.3489   0.0437   299.7
4005.000     0.4697   0.0437   299.7
4006.000     0.4609   0.0438   299.6
4007.000     0.4128   0.0439   299.6
4008.000     0.4487   0.0440   299.5
4009.000     0.4092   0.0443   299.4
4010.000     0.4043   0.0446   299.4
4011.000     0.4924   0.0449   299.3
4012.000     0.4617   0.0453   299.2
4013.000     0.5468   0.0457   299.2
4014.000     0.5794   0.0460   299.1
4015.000     0.4938   0.0462   299.0
4016.000     0.4785   0.0464   299.0
4017.000     0.5453   0.0466   298.9
4018.000     0.3880   0.0468   298.8
4019.000     0.4146   0.0469   298.8
4020.000     0.4635   0.0470   298.7
4021.000     0.4888   0.0470   298.7
4022.000     0.4787   0.0471   298.6
4023.000     0.4797   0.0471   298.5
4024.000     0.5089   0.0471   298.5
4025.000     0.4739   0.0470   298.4
4026.000     0.4995   0.0470   298.3
4027.000     0.4834   0.0468   298.3
4028.000     0.4426   0.0466   298.2
4029.000     0.4279   0.0463   298.1
4030.000     0.4161   0.0459   298.1
4031.000     0.4783   0.0456   298.0
4032.000     0.4484   0.0454   298.0
4033.000     0.5385   0.0452   297.9
4034.000     0.4639   0.0453   297.8
4035.000     0.5464   0.0455   297.8
4036.000     0.4136   0.0459   297.7
4037.000     0.4729   0.0464   297.6
4038.000     0.4150   0.0468   297.6
4039.000     0.4717   0.0472   297.5
4040.000     0.5220   0.0473   297.4
4041.000     0.4658   0.0473   297.4
4042.000     0.4697   0.0471   297.3
4043.000     0.4982   0.0468   297.2
4044.000     0.5640   0.0464   297.2
4045.000     0.4324   0.0461   297.1
4046.000     0.4236   0.0458   297.1
4047.000     0.4417   0.0458   297.0
4048.000     0.4652   0.0459   296.9
4049.000     0.4387   0.0461   296.9
4050.000     0.4896   0.0464   296.8
4051.000     0.5142   0.0466   296.7
4052.000     0.4251   0.0468   296.7
4053.000     0.5568   0.0469   296.6
4054.000     0.4159   0.0469   296.5
4055.000     0.4965   0.0468   296.5
4056.000     0.4842   0.0466   296.4
4057.000     0.5609   0.0464   296.4
4058.000     0.4448   0.0462   296.3
4059.000     0.4710   0.0460   296.2
4060.000     0.4900   0.0459   296.2
4061.000     0.5045   0.0457   296.1
4062.000     0.4544   0.0456   296.0
4063.000     0.5430   0.0455   296.0
4064.000     0.4085   0.0454   295.9
4065.000     0.4205   0.0454   295.8
4066.000     0.4634   0.0455   295.8
4067.000     0.4229   0.0456   295.7
4068.000     0.3948   0.0458   295.6
4069.000     0.5281   0.0460   295.6
4070.000     0.5057   0.0461   295.5
4071.000     0.3631   0.0462   295.5
4072.000     0.5076   0.0462   295.4
4073.000     0.5154   0.0461   295.3
4074.000     0.4106   0.0459   295.3
4075.000     0.5154   0.0456   295.2
4076.000     0.3877   0.0454   295.1
4077.000     0.4308   0.0453   295.1
4078.000     0.4457   0.0453   295.0
4079.000     0.4763   0.0454   294.9
4080.000     0.4747   0.0457   294.9
4081.000     0.4708   0.0461   294.8
4082.000     0.4253   0.0465   294.8
4083.000     0.5424   0.0470   294.7
4084.000     0.5065   0.0475   294.6
4085.000     0.4538   0.0480   294.6
4086.000     0.4564   0.0484   294.5
4087.000     0.5564   0.0488   294.4
4088.000     0.5223   0.0491   294.4
4089.000     0.4482   0.0493   294.3
4090.000     0.4740   0.0493   294.2
4091.000     0.5425   0.0492   294.2
4092.000     0.3922   0.0489   294.1
4093.000     0.4412   0.0483   294.0
4094.000     0.5096   0.0475   294.0
4095.000     0.4086   0.0466   293.9
4096.000     0.5271   0.0454   293.9
4097.000     0.3924   0.0442   293.8
4098.000     0.3694   0.0429   293.7
4099.000     0.3611   0.0416   293.7
4100.000     0.4075   0.0406   293.6
4101.000     0.3814   0.0398   293.5
4102.000     0.3627   0.0393   293.5
4103.000     0.3967   0.0392   293.4
4104.000     0.3637   0.0396   293.3
4105.000     0.4122   0.0402   293.3
4106.000     0.4376   0.0411   293.2
4107.000     0.4365   0.0421   293.2
4108.000     0.3855   0.0432   293.1
4109.000     0.4827   0.0443   293.0
4110.000     0.4597   0.0452   293.0
4111.000     0.4993   0.0461   292.9
4112.000     0.5141   0.0468   292.8
4113.000     0.4564   0.0475   292.8
4114.000     0.5178   0.0480   292.7
4115.000     0.4503   0.0485   292.6
4116.000     0.5165   0.0488   292.6
4117.000     0.4107   0.0490   292.5
4118.000     0.5248   0.0492   292.4
4119.000     0.4935   0.0492   292.4
4120.000     0.4098   0.0492   292.3
4121.000     0.5089   0.0492   292.3
4122.000     0.4664   0.0493   292.2
4123.000     0.5971   0.0493   292.1
4124.000     0.5027   0.0493   292.1
4125.000     0.6064   0.0493   292.0
4126.000     0.5284   0.0492   291.9
4127.000     0.4491   0.0492   291.9
4128.000     0.5050   0.0490   291.8
4129.000     0.5001   0.0488   291.7
4130.000     0.5283   0.0486   291.7
4131.000     0.4091   0.0485   291.6
4132.000     0.4717   0.0484   291.6
4133.000     0.4563   0.0484   291.5
4134.000     0.4975   0.0486   291.4
4135.000     0.4987   0.0489   291.4
4136.000     0.5087   0.0493   291.3
4137.000     0.5300   0.0496   291.2
4138.000     0.4912   0.0500   291.2
4139.000     0.5415   0.0502   291.1
4140.000     0.4841   0.0503   291.0
4141.000     0.4822   0.0503   291.0
4142.000     0.5184   0.0501   290.9
4143.000     0.5088   0.0499   290.8
4144.000     0.4479   0.0497   290.8
4145.000     0.6056   0.0495   290.7
4146.000     0.4463   0.0494   290.7
4147.000     0.4191   0.0494   290.6
4148.000     0.5511   0.0495   290.5
4149.000     0.5221   0.0496   290.5
4150.000     0.5161   0.0497   290.4
4151.000     0.4657   0.0497   290.3
4152.000     0.4276   0.0497   290.3
4153.000     0.4862   0.0497   290.2
4154.000     0.4949   0.0497   290.1
4155.000     0.4983   0.0498   290.1
4156.000     0.5037   0.0499   290.0
4157.000     0.5634   0.0501   290.0
4158.000     0.4489   0.0504   289.9
4159.000     0.4110   0.0508   289.8
4160.000     0.4924   0.0512   289.8
4161.000     0.4298   0.0516   289.7
4162.000     0.3770   0.0519   289.6
4163.000     0.6010   0.0522   289.6
4164.000     0.5322   0.0523   289.5
4165.000     0.4901   0.0523   289.4
4166.000     0.5012   0.0522   289.4
4167.000     0.6096   0.0519   289.3
4168.000     0.5737   0.0515   289.2
4169.000     0.5569   0.0511   289.2
4170.000     0.5227   0.0506   289.1
4171.000     0.4474   0.0501   289.1
4172.000     0.4894   0.0496   289.0
4173.000     0.4448   0.0491   288.9
4174.000     0.5870   0.0488   288.9
4175.000     0.4351   0.0486   288.8
4176.000     0.4220   0.0485   288.7
4177.000     0.4069   0.0486   288.7
4178.000     0.5274   0.0488   288.6
4179.000     0.4091   0.0491   288.5
4180.000     0.5242   0.0494   288.5
4181.000     0.5116   0.0497   288.4
4182.000     0.4901   0.0500   288.4
4183.000     0.6287   0.0503   288.3
4184.000     0.4779   0.0506   288.2
4185.000     0.5328   0.0508   288.2
4186.000     0.4465   0.0509   288.1
4187.000     0.4703   0.0511   288.0
4188.000     0.5514   0.0513   288.0
4189.000     0.4747   0.0514   287.9
4190.000     0.5142   0.0516   287.8
4191.000     0.5530   0.0517   287.8
4192.000     0.5225   0.0518   287.7
4193.000     0.4968   0.0518   287.6
4194.000     0.5201   0.0517   287.6
4195.000     0.4061   0.0515   287.5
4196.000     0.4977   0.0512   287.5
4197.000     0.5623   0.0508   287.4
4198.000     0.5928   0.0504   287.3
4199.000     0.5361   0.0501   287.3
4200.000     0.5067   0.0499   287.2
4201.000     0.5066   0.0498   287.1
4202.000     0.4609   0.0499   287.1
4203.000     0.5498   0.0502   287.0
4204.000     0.5508   0.0505   286.9
4205.000     0.4825   0.0510   286.9
4206.000     0.4353   0.0515   286.8
4207.000     0.5431   0.0520   286.8
4208.000     0.5917   0.0526   286.7
4209.000     0.5060   0.0530   286.6
4210.000     0.5472   0.0533   286.6
4211.000     0.5572   0.0535   286.5
4212.000     0.5893   0.0536   286.4
4213.000     0.5641   0.0537   286.4
4214.000     0.4865   0.0536   286.3
4215.000     0.5814   0.0536   286.2
4216.000     0.5200   0.0536   286.2
4217.000     0.5377   0.0536   286.1
4218.000     0.5842   0.0536   286.0
4219.000     0.4378   0.0536   286.0
4220.000     0.5815   0.0535   285.9
4221.000     0.4752   0.0533   285.9
4222.000     0.4973   0.0528   285.8
4223.000     0.5845   0.0521   285.7
4224.000     0.5757   0.0514   285.7
4225.000     0.4649   0.0506   285.6
4226.000     0.4486   0.0500   285.5
4227.000     0.4206   0.0496   285.5
4228.000     0.4530   0.0495   285.4
4229.000     0.5771   0.0497   285.3
4230.000     0.5111   0.0502   285.3
4231.000     0.4571   0.0508   285.2
4232.000     0.5068   0.0514   285.2
4233.000     0.4496   0.0519   285.1
4234.000     0.5181   0.0523   285.0
4235.000     0.5622   0.0526   285.0
4236.000     0.4530   0.0527   284.9
4237.000     0.5748   0.0529   284.8
4238.000     0.6144   0.0530   284.8
4239.000     0.5818   0.0532   284.7
4240.000     0.5055   0.0535   284.6
4241.000     0.5889   0.0538   284.6
4242.000     0.4885   0.0541   284.5
4243.000     0.4867   0.0544   284.4
4244.000     0.6642   0.0546   284.4
4245.000     0.4774   0.0547   284.3
4246.000     0.5022   0.0546   284.3
4247.000     0.5305   0.0544   284.2
4248.000     0.5468   0.0542   284.1
4249.000     0.6104   0.0539   284.1
4250.000     0.5793   0.0537   284.0
4251.000     0.6076   0.0535   283.9
4252.000     0.5751   0.0534   283.9
4253.000     0.5494   0.0534   283.8
4254.000     0.4599   0.0534   283.7
4255.000     0.5429   0.0535   283.7
4256.000     0.4968   0.0536   283.6
4257.000     0.4982   0.0537   283.6
4258.000     0.5224   0.0538   283.5
4259.000     0.6515   0.0539   283.4
4260.000     0.5946   0.0540   283.4
4261.000     0.5985   0.0543   283.3
4262.000     0.4864   0.0545   283.2
4263.000     0.5486   0.0549   283.2
4264.000     0.5397   0.0552   283.1
4265.000     0.5703   0.0554   283.0
4266.000     0.6011   0.0555   283.0
4267.000     0.5458   0.0554   282.9
4268.000     0.5565   0.0550   282.8
4269.000     0.5807   0.0544   282.8
4270.000     0.5597   0.0538   282.7
4271.000     0.5739   0.0531   282.7
4272.000     0.3815   0.0525   282.6
4273.000     0.4699   0.0521   282.5
4274.000     0.5117   0.0520   282.5
4275.000     0.4681   0.0521   282.4
4276.000     0.4670   0.0524   282.3
4277.000     0.3928   0.0529   282.3
4278.000     0.5688   0.0534   282.2
4279.000     0.5201   0.0538   282.1
4280.000     0.4911   0.0541   282.1
4281.000     0.6364   0.0543   282.0
4282.000     0.5178   0.0543   282.0
4283.000     0.5884   0.0542   281.9
4284.000     0.5513   0.0539   281.8
4285.000     0.5681   0.0535   281.8
4286.000     0.4215   0.0530   281.7
4287.000     0.5167   0.0525   281.6
4288.000     0.4975   0.0521   281.6
4289.000     0.5519   0.0516   281.5
4290.000     0.6560   0.0513   281.4
4291.000     0.5885   0.0511   281.4
4292.000     0.5745   0.0509   281.3
4293.000     0.4323   0.0507   281.2
4294.000     0.5160   0.0505   281.2
4295.000     0.4899   0.0502   281.1
4296.000     0.4267   0.0497   281.1
4297.000     0.5066   0.0491   281.0
4298.000     0.5315   0.0483   280.9
4299.000     0.4897   0.0474   280.9
4300.000     0.5080   0.0465   280.8
4301.000     0.5186   0.0457   280.7
4302.000     0.4330   0.0450   280.7
4303.000     0.5316   0.0445   280.6
4304.000     0.4031   0.0441   280.5
4305.000     0.4291   0.0439   280.5
4306.000     0.4359   0.0438   280.4
4307.000     0.4197   0.0439   280.4
4308.000     0.3753   0.0442   280.3
4309.000     0.4932   0.0446   280.2
4310.000     0.5370   0.0453   280.2
4311.000     0.4858   0.0463   280.1
4312.000     0.4801   0.0475   280.0
4313.000     0.4714   0.0489   280.0
4314.000     0.5292   0.0506   279.9
4315.000     0.5538   0.0523   279.8
4316.000     0.5302   0.0540   279.8
4317.000     0.5216   0.0555   279.7
4318.000     0.4224   0.0567   279.6
4319.000     0.5735   0.0575   279.6
4320.000     0.6605   0.0579   279.5
4321.000     0.5821   0.0579   279.5
4322.000     0.4861   0.0575   279.4
4323.000     0.5219   0.0569   279.3
4324.000     0.4720   0.0562   279.3
4325.000     0.4409   0.0556   279.2
4326.000     0.6356   0.0552   279.1
4327.000     0.5609   0.0551   279.1
4328.000     0.5786   0.0553   279.0
4329.000     0.4340   0.0557   278.9
4330.000     0.5921   0.0562   278.9
4331.000     0.6053   0.0566   278.8
4332.000     0.6392   0.0568   278.8
4333.000     0.5080   0.0567   278.7
4334.000     0.4911   0.0563   278.6
4335.000     0.6259   0.0555   278.6
4336.000     0.5786   0.0544   278.5
4337.000     0.5141   0.0530   278.4
4338.000     0.5543   0.0515   278.4
4339.000     0.5904   0.0502   278.3
4340.000     0.5067   0.0492   278.2
4341.000     0.5117   0.0486   278.2
4342.000     0.5308   0.0485   278.1
4343.000     0.5261   0.0490   278.0
4344.000     0.4916   0.0499   278.0
4345.000     0.5150   0.0511   277.9
4346.000     0.4251   0.0524   277.9
4347.000     0.4661   0.0537   277.8
4348.000     0.6904   0.0548   277.7
4349.000     0.5228   0.0557   277.7
4350.000     0.4667   0.0563   277.6
4351.000     0.6446   0.0568   277.5
4352.000     0.6740   0.0571   277.5
4353.000     0.4988   0.0574   277.4
4354.000     0.5795   0.0578   277.3
4355.000     0.5689   0.0582   277.3
4356.000     0.5688   0.0587   277.2
4357.000     0.5429   0.0593   277.2
4358.000     0.5496   0.0599   277.1
4359.000     0.5761   0.0606   277.0
4360.000     0.6464   0.0613   277.0
4361.000     0.6069   0.0619   276.9
4362.000     0.6384   0.0624   276.8
4363.000     0.6380   0.0628   276.8
4364.000     0.6190   0.0631   276.7
4365.000     0.5917   0.0633   276.6
4366.000     0.5788   0.0633   276.6
4367.000     0.6082   0.0632   276.5
4368.000     0.6281   0.0629   276.4
4369.000     0.5360   0.0626   276.4
4370.000     0.5727   0.0622   276.3
4371.000     0.6779   0.0617   276.3
4372.000     0.5632   0.0613   276.2
4373.000     0.6174   0.0610   276.1
4374.000     0.5207   0.0607   276.1
4375.000     0.6819   0.0606   276.0
4376.000     0.6862   0.0604   275.9
4377.000     0.6192   0.0604   275.9
4378.000     0.6102   0.0603   275.8
4379.000     0.6286   0.0601   275.7
4380.000     0.5891   0.0597   275.7
4381.000     0.5502   0.0592   275.6
4382.000     0.6369   0.0586   275.6
4383.000     0.5378   0.0580   275.5
4384.000     0.5982   0.0574   275.4
4385.000     0.6430   0.0570   275.4
4386.000     0.5009   0.0569   275.3
4387.000     0.5617   0.0570   275.2
4388.000     0.5744   0.0574   275.2
4389.000     0.4541   0.0579   275.1
4390.000     0.5562   0.0585   275.0
4391.000     0.5959   0.0592   275.0
4392.000     0.5207   0.0598   274.9
4393.000     0.6642   0.0604   274.8
4394.000     0.7103   0.0609   274.8
4395.000     0.7037   0.0613   274.7
4396.000     0.7451   0.0617   274.7
4397.000     0.6010   0.0619   274.6
4398.000     0.6946   0.0621   274.5
4399.000     0.6423   0.0621   274.5
4400.000     0.5440   0.0621   274.4
4401.000     0.5605   0.0619   274.3
4402.000     0.5920   0.0617   274.3
4403.000     0.5050   0.0614   274.2
4404.000     0.6108   0.0612   274.1
4405.000     0.6128   0.0611   274.1
4406.000     0.7872   0.0611   274.0
4407.000     0.6310   0.0612   274.0
4408.000     0.7008   0.0615   273.9
4409.000     0.6544   0.0620   273.8
4410.000     0.5820   0.0625   273.8
4411.000     0.5690   0.0630   273.7
4412.000     0.5983   0.0635   273.6
4413.000     0.6170   0.0638   273.6
4414.000     0.7157   0.0641   273.5
4415.000     0.7230   0.0643   273.4
4416.000     0.6186   0.0644   273.4
4417.000     0.6289   0.0645   273.3
4418.000     0.5946   0.0646   273.2
4419.000     0.6357   0.0648   273.2
4420.000     0.6680   0.0650   273.1
4421.000     0.6159   0.0652   273.1
4422.000     0.6631   0.0654   273.0
4423.000     0.6133   0.0655   272.9
4424.000     0.7446   0.0656   272.9
4425.000     0.6713   0.0656   272.8
4426.000     0.6186   0.0656   272.7
4427.000     0.7490   0.0656   272.7
4428.000     0.5402   0.0655   272.6
4429.000     0.6455   0.0654   272.5
4430.000     0.7542   0.0653   272.5
4431.000     0.7326   0.0652   272.4
4432.000     0.7028   0.0650   272.4
4433.000     0.6471   0.0650   272.3
4434.000     0.7165   0.0649   272.2
4435.000     0.6979   0.0650   272.2
4436.000     0.7227   0.0651   272.1
4437.000     0.5863   0.0653   272.0
4438.000     0.7301   0.0656   272.0
4439.000     0.5980   0.0658   271.9
4440.000     0.5753   0.0661   271.8
4441.000     0.6616   0.0662   271.8
4442.000     0.6586   0.0663   271.7
4443.000     0.7501   0.0664   271.6
4444.000     0.6511   0.0665   271.6
4445.000     0.6886   0.0667   271.5
4446.000     0.6006   0.0669   271.5
4447.000     0.5875   0.0671   271.4
4448.000     0.6482   0.0673   271.3
4449.000     0.7136   0.0674   271.3
4450.000     0.8502   0.0674   271.2
4451.000     0.6005   0.0672   271.1
4452.000     0.7908   0.0669   271.1
4453.000     0.6450   0.0664   271.0
4454.000     0.7529   0.0659   270.9
4455.000     0.5558   0.0653   270.9
4456.000     0.6645   0.0647   270.8
4457.000     0.6530   0.0643   270.8
4458.000     0.6103   0.0639   270.7
4459.000     0.6196   0.0637   270.6
4460.000     0.6367   0.0637   270.6
4461.000     0.6461   0.0638   270.5
4462.000     0.5180   0.0640   270.4
4463.000     0.5621   0.0644   270.4
4464.000     0.5900   0.0648   270.3
4465.000     0.4706   0.0652   270.2
4466.000     0.5657   0.0657   270.2
4467.000     0.7107   0.0661   270.1
4468.000     0.6866   0.0666   270.0
4469.000     0.6081   0.0671   270.0
4470.000     0.7399   0.0676   269.9
4471.000     0.6816   0.0682   269.9
4472.000     0.6235   0.0689   269.8
4473.000     0.7388   0.0695   269.7
4474.000     0.7955   0.0702   269.7
4475.000     0.6818   0.0707   269.6
4476.000     0.7634   0.0711   269.5
4477.000     0.7340   0.0713   269.5
4478.000     0.7366   0.0713   269.4
4479.000     0.6223   0.0712   269.3
4480.000     0.6123   0.0710   269.3
4481.000     0.6280   0.0707   269.2
4482.000     0.7276   0.0706   269.2
4483.000     0.6997   0.0705   269.1
4484.000     0.6914   0.0705   269.0
4485.000     0.7971   0.0706   269.0
4486.000     0.8158   0.0707   268.9
4487.000     0.5742   0.0708   268.8
4488.000     0.5566   0.0709   268.8
4489.000     0.6759   0.0709   268.7
4490.000     0.7396   0.0708   268.6
4491.000     0.7484   0.0707   268.6
4492.000     0.6872   0.0706   268.5
4493.000     0.5550   0.0706   268.4
4494.000     0.8394   0.0706   268.4
4495.000     0.6575   0.0707   268.3
4496.000     0.7342   0.0709   268.3
4497.000     0.7134   0.0712   268.2
4498.000     0.6922   0.0716   268.1
4499.000     0.8018   0.0721   268.1
4500.000     0.8191   0.0727   268.0
4501.000     0.6324   0.0733   267.9
4502.000     0.5483   0.0740   267.9
4503.000     0.6965   0.0746   267.8
4504.000     0.7776   0.0752   267.7
4505.000     0.7779   0.0757   267.7
4506.000     0.7881   0.0761   267.6
4507.000     0.8502   0.0764   267.6
4508.000     0.8435   0.0765   267.5
4509.000     0.7314   0.0765   267.4
4510.000     0.6578   0.0764   267.4
4511.000     0.7038   0.0762   267.3
4512.000     0.8504   0.0760   267.2
4513.000     0.7024   0.0756   267.2
4514.000     0.8391   0.0753   267.1
4515.000     0.8006   0.0750   267.0
4516.000     0.9089   0.0746   267.0
4517.000     0.7428   0.0744   266.9
4518.000     0.5679   0.0741   266.8
4519.000     0.8880   0.0739   266.8
4520.000     0.7387   0.0736   266.7
4521.000     0.7241   0.0733   266.7
4522.000     0.8345   0.0729   266.6
4523.000     0.6994   0.0725   266.5
4524.000     0.6418   0.0719   266.5
4525.000     0.6872   0.0712   266.4
4526.000     0.7464   0.0705   266.3
4527.000     0.6710   0.0698   266.3
4528.000     0.8187   0.0692   266.2
4529.000     0.6202   0.0687   266.1
4530.000     0.6301   0.0684   266.1
4531.000     0.5876   0.0682   266.0
4532.000     0.8130   0.0682   266.0
4533.000     0.8028   0.0684   265.9
4534.000     0.6668   0.0688   265.8
4535.000     0.6311   0.0693   265.8
4536.000     0.5738   0.0699   265.7
4537.000     0.8089   0.0706   265.6
4538.000     0.7583   0.0713   265.6
4539.000     0.7669   0.0720   265.5
4540.000     0.6985   0.0726   265.4
4541.000     0.8193   0.0731   265.4
4542.000     0.7351   0.0733   265.3
4543.000     0.6461   0.0734   265.2
4544.000     0.6669   0.0734   265.2
4545.000     0.7521   0.0733   265.1
4546.000     0.6295   0.0730   265.1
4547.000     0.7661   0.0728   265.0
4548.000     0.6553   0.0725   264.9
4549.000     0.6871   0.0722   264.9
4550.000     0.6807   0.0720   264.8
4551.000     0.6944   0.0719   264.7
4552.000     0.7556   0.0718   264.7
4553.000     0.6225   0.0719   264.6
4554.000     0.6719   0.0721   264.5
4555.000     0.6228   0.0725   264.5
4556.000     0.6905   0.0729   264.4
4557.000     0.6592   0.0734   264.4
4558.000     0.7498   0.0740   264.3
4559.000     0.7787   0.0746   264.2
4560.000     0.8956   0.0750   264.2
4561.000     0.7169   0.0754   264.1
4562.000     0.8576   0.0756   264.0
4563.000     0.7151   0.0758   264.0
4564.000     0.7056   0.0758   263.9
4565.000     0.8054   0.0758   263.8
4566.000     0.8353   0.0758   263.8
4567.000     0.8416   0.0759   263.7
4568.000     0.7984   0.0760   263.6
4569.000     0.7716   0.0761   263.6
4570.000     0.8966   0.0762   263.5
4571.000     0.7253   0.0763   263.5
4572.000     0.6977   0.0764   263.4
4573.000     0.7151   0.0765   263.3
4574.000     0.6650   0.0765   263.3
4575.000     0.7122   0.0765   263.2
4576.000     0.8857   0.0764   263.1
4577.000     0.6375   0.0762   263.1
4578.000     0.8931   0.0760   263.0
4579.000     0.6381   0.0757   262.9
4580.000     0.8334   0.0753   262.9
4581.000     0.5427   0.0749   262.8
4582.000     0.8770   0.0746   262.8
4583.000     0.6922   0.0744   262.7
4584.000     0.7581   0.0744   262.6
4585.000     0.7382   0.0745   262.6
4586.000     0.7204   0.0747   262.5
4587.000     0.8651   0.0749   262.4
4588.000     0.8327   0.0752   262.4
4589.000     0.7503   0.0755   262.3
4590.000     0.7928   0.0757   262.2
4591.000     0.8305   0.0758   262.2
4592.000     0.7357   0.0759   262.1
4593.000     0.8243   0.0759   262.0
4594.000     0.8391   0.0758   262.0
4595.000     0.7124   0.0758   261.9
4596.000     0.6696   0.0758   261.9
4597.000     0.7831   0.0757   261.8
4598.000     0.6898   0.0758   261.7
4599.000     0.7913   0.0758   261.7
4600.000     0.7382   0.0760   261.6
4601.000     0.8382   0.0761   261.5
4602.000     0.8329   0.0763   261.5
4603.000     0.9278   0.0766   261.4
4604.000     0.8659   0.0769   261.3
4605.000     0.8141   0.0773   261.3
4606.000     0.7293   0.0777   261.2
4607.000     0.7018   0.0782   261.2
4608.000     0.8281   0.0786   261.1
4609.000     0.8954   0.0790   261.0
4610.000     0.8650   0.0794   261.0
4611.000     0.7861   0.0796   260.9
4612.000     0.7537   0.0798   260.8
4613.000     0.8924   0.0799   260.8
4614.000     0.8202   0.0799   260.7
4615.000     0.6563   0.0799   260.6
4616.000     0.9232   0.0799   260.6
4617.000     0.6213   0.0799   260.5
4618.000     0.7371   0.0799   260.4
4619.000     0.7676   0.0800   260.4
4620.000     0.8500   0.0801   260.3
4621.000     0.7589   0.0802   260.3
4622.000     0.7479   0.0804   260.2
4623.000     0.8023   0.0805   260.1
4624.000     0.8986   0.0806   260.1
4625.000     0.7796   0.0807   260.0
4626.000     0.9780   0.0807   259.9
4627.000     0.8288   0.0807   259.9
4628.000     0.7662   0.0806   259.8
4629.000     0.7713   0.0806   259.7
4630.000     0.7511   0.0805   259.7
4631.000     0.8572   0.0803   259.6
4632.000     0.7787   0.0802   259.6
4633.000     0.7871   0.0800   259.5
4634.000     0.7474   0.0798   259.4
4635.000     0.9409   0.0796   259.4
4636.000     0.6419   0.0794   259.3
4637.000     0.7648   0.0792   259.2
4638.000     0.8207   0.0790   259.2
4639.000     0.8141   0.0789   259.1
4640.000     0.7912   0.0788   259.0
4641.000     0.8470   0.0787   259.0
4642.000     0.8066   0.0787   258.9
4643.000     0.7699   0.0786   258.8
4644.000     0.7026   0.0784   258.8
4645.000     0.8087   0.0782   258.7
4646.000     0.6947   0.0780   258.7
4647.000     0.6205   0.0778   258.6
4648.000     0.8525   0.0777   258.5
4649.000     0.7565   0.0777   258.5
4650.000     0.7399   0.0778   258.4
4651.000     0.7644   0.0780   258.3
4652.000     0.7714   0.0782   258.3
4653.000     0.7599   0.0785   258.2
4654.000     0.7737   0.0788   258.1
4655.000     0.8109   0.0792   258.1
4656.000     0.7848   0.0795   258.0
4657.000     0.8416   0.0799   258.0
4658.000     1.0035   0.0803   257.9
4659.000     0.8862   0.0806   257.8
4660.000     0.8469   0.0808   257.8
4661.000     0.8173   0.0808   257.7
4662.000     0.8380   0.0807   257.6
4663.000     0.8682   0.0803   257.6
4664.000     0.8347   0.0798   257.5
4665.000     0.8858   0.0791   257.4
4666.000     0.8706   0.0784   257.4
4667.000     0.7638   0.0778   257.3
4668.000     0.7381   0.0774   257.2
4669.000     0.8110   0.0772   257.2
4670.000     0.9031   0.0773   257.1
4671.000     0.6919   0.0775   257.1
4672.000     0.8158   0.0780   257.0
4673.000     0.7817   0.0786   256.9
4674.000     0.7797   0.0791   256.9
4675.000     0.7790   0.0796   256.8
4676.000     0.9261   0.0800   256.7
4677.000     0.8899   0.0803   256.7
4678.000     0.8172   0.0804   256.6
4679.000     0.7637   0.0804   256.5
4680.000     0.8792   0.0804   256.5
4681.000     0.8331   0.0804   256.4
4682.000     0.7694   0.0804   256.4
4683.000     0.7714   0.0804   256.3
4684.000     0.8267   0.0805   256.2
4685.000     0.6729   0.0806   256.2
4686.000     0.7963   0.0808   256.1
4687.000     0.7873   0.0810   256.0
4688.000     0.7656   0.0811   256.0
4689.000     0.8699   0.0813   255.9
4690.000     0.7524   0.0814   255.8
4691.000     0.8350   0.0815   255.8
4692.000     0.7853   0.0817   255.7
4693.000     0.7863   0.0818   255.6
4694.000     0.7794   0.0820   255.6
4695.000     1.0551   0.0820   255.5
4696.000     0.8283   0.0820   255.5
4697.000     0.7505   0.0819   255.4
4698.000     0.6849   0.0816   255.3
4699.000     0.6925   0.0813   255.3
4700.000     0.7288   0.0809   255.2
4701.000     0.7657   0.0805   255.1
4702.000     0.7847   0.0801   255.1
4703.000     0.8815   0.0798   255.0
4704.000     0.7569   0.0795   254.9
4705.000     0.8237   0.0794   254.9
4706.000     0.7910   0.0793   254.8
4707.000     0.8421   0.0794   254.8
4708.000     0.8354   0.0795   254.7
4709.000     0.7997   0.0797   254.6
4710.000     0.7918   0.0800   254.6
4711.000     0.9615   0.0803   254.5
4712.000     0.8161   0.0807   254.4
4713.000     0.7190   0.0812   254.4
4714.000     0.7690   0.0817   254.3
4715.000     0.6841   0.0822   254.2
4716.000     0.7733   0.0827   254.2
4717.000     0.7100   0.0832   254.1
4718.000     0.9234   0.0837   254.0
4719.000     1.0312   0.0842   254.0
4720.000     0.8697   0.0846   253.9
4721.000     0.7844   0.0849   253.9
4722.000     0.7875   0.0851   253.8
4723.000     0.7423   0.0851   253.7
4724.000     0.7314   0.0850   253.7
4725.000     0.8258   0.0847   253.6
4726.000     0.9291   0.0843   253.5
4727.000     0.8048   0.0838   253.5
4728.000     0.6852   0.0833   253.4
4729.000     1.0038   0.0828   253.3
4730.000     0.6678   0.0825   253.3
4731.000     0.8722   0.0822   253.2
4732.000     0.9784   0.0821   253.2
4733.000     0.9204   0.0822   253.1
4734.000     0.8885   0.0823   253.0
4735.000     0.6626   0.0826   253.0
4736.000     0.8968   0.0829   252.9
4737.000     0.7727   0.0832   252.8
4738.000     0.8337   0.0835   252.8
4739.000     0.7170   0.0838   252.7
4740.000     0.7361   0.0841   252.6
4741.000     0.7582   0.0844   252.6
4742.000     1.0093   0.0847   252.5
4743.000     0.7726   0.0850   252.4
4744.000     0.7343   0.0852   252.4
4745.000     0.6486   0.0855   252.3
4746.000     1.0131   0.0857   252.3
4747.000     0.9171   0.0859   252.2
4748.000     0.8136   0.0860   252.1
4749.000     0.6499   0.0861   252.1
4750.000     0.7677   0.0861   252.0
4751.000     0.7915   0.0860   251.9
4752.000     1.0337   0.0858   251.9
4753.000     0.7799   0.0856   251.8
4754.000     0.9099   0.0854   251.7
4755.000     0.7044   0.0851   251.7
4756.000     0.8187   0.0849   251.6
4757.000     0.9333   0.0847   251.6
4758.000     0.7918   0.0845   251.5
4759.000     0.7222   0.0842   251.4
4760.000     0.9036   0.0840   251.4
4761.000     0.8866   0.0837   251.3
4762.000     0.8592   0.0834   251.2
4763.000     0.9250   0.0831   251.2
4764.000     0.7897   0.0829   251.1
4765.000     0.8587   0.0827   251.0
4766.000     0.7340   0.0827   251.0
4767.000     0.8065   0.0828   250.9
4768.000     0.8367   0.0831   250.8
4769.000     0.6533   0.0835   250.8
4770.000     0.7891   0.0840   250.7
4771.000     0.9047   0.0845   250.7
4772.000     0.7145   0.0850   250.6
4773.000     0.7943   0.0855   250.5
4774.000     0.8695   0.0860   250.5
4775.000     1.1265   0.0864   250.4
4776.000     0.9524   0.0867   250.3
4777.000     0.8220   0.0870   250.3
4778.000     0.7338   0.0871   250.2
4779.000     0.8394   0.0871   250.1
4780.000     0.8726   0.0870   250.1
4781.000     0.9631   0.0868   250.0
4782.000     0.8192   0.0865   250.0
4783.000     0.9348   0.0862   249.9
4784.000     0.9545   0.0859   249.8
4785.000     0.8359   0.0856   249.8
4786.000     0.9211   0.0854   249.7
4787.000     0.8215   0.0853   249.6
4788.000     0.8550   0.0853   249.6
4789.000     0.7239   0.0854   249.5
4790.000     0.8600   0.0856   249.4
4791.000     0.9335   0.0860   249.4
4792.000     0.9142   0.0864   249.3
4793.000     0.8477   0.0869   249.2
4794.000     0.9616   0.0873   249.2
4795.000     0.8255   0.0877   249.1
4796.000     0.8599   0.0880   249.1
4797.000     0.7616   0.0882   249.0
4798.000     0.9428   0.0883   248.9
4799.000     0.8443   0.0882   248.9
4800.000     0.9023   0.0882   248.8
4801.000     0.8976   0.0881   248.7
4802.000     0.8792   0.0880   248.7
4803.000     0.9058   0.0879   248.6
4804.000     0.9438   0.0878   248.5
4805.000     0.8695   0.0877   248.5
4806.000     0.9252   0.0877   248.4
4807.000     0.8914   0.0876   248.4
4808.000     0.9272   0.0876   248.3
4809.000     0.8550   0.0876   248.2
4810.000     0.9690   0.0878   248.2
4811.000     0.9347   0.0879   248.1
4812.000     0.8075   0.0882   248.0
4813.000     0.8705   0.0885   248.0
4814.000     0.8217   0.0888   247.9
4815.000     0.7318   0.0891   247.8
4816.000     0.8754   0.0894   247.8
4817.000     1.0162   0.0897   247.7
4818.000     0.9598   0.0898   247.6
4819.000     0.8981   0.0899   247.6
4820.000     0.9367   0.0898   247.5
4821.000     0.9556   0.0896   247.5
4822.000     1.0028   0.0893   247.4
4823.000     0.9652   0.0890   247.3
4824.000     1.0760   0.0887   247.3
4825.000     0.9862   0.0884   247.2
4826.000     0.7280   0.0881   247.1
4827.000     0.8912   0.0879   247.1
4828.000     0.9694   0.0878   247.0
4829.000     0.8597   0.0877   246.9
4830.000     0.7400   0.0877   246.9
4831.000     0.8809   0.0876   246.8
4832.000     0.8228   0.0876   246.8
4833.000     0.6808   0.0876   246.7
4834.000     0.8653   0.0876   246.6
4835.000     0.9710   0.0876   246.6
4836.000     0.9383   0.0876   246.5
4837.000     0.9368   0.0875   246.4
4838.000     0.8889   0.0874   246.4
4839.000     0.7798   0.0872   246.3
4840.000     0.9787   0.0871   246.2
4841.000     0.8503   0.0870   246.2
4842.000     0.8163   0.0869   246.1
4843.000     0.8845   0.0868   246.0
4844.000     1.0191   0.0868   246.0
4845.000     0.9127   0.0868   245.9
4846.000     0.8991   0.0868   245.9
4847.000     0.7890   0.0868   245.8
4848.000     1.0362   0.0866   245.7
4849.000     0.9427   0.0864   245.7
4850.000     1.0023   0.0861   245.6
4851.000     1.0143   0.0856   245.5
4852.000     0.7486   0.0849   245.5
4853.000     0.9161   0.0841   245.4
4854.000     0.8960   0.0830   245.3
4855.000     0.6689   0.0817   245.3
4856.000     0.8302   0.0801   245.2
4857.000     0.7483   0.0784   245.2
4858.000     0.6133   0.0766   245.1
4859.000     0.8078   0.0748   245.0
4860.000     0.7179   0.0732   245.0
4861.000     0.7158   0.0720   244.9
4862.000     0.7673   0.0713   244.8
4863.000     0.7172   0.0711   244.8
4864.000     0.7488   0.0716   244.7
4865.000     0.6351   0.0726   244.6
4866.000     0.7977   0.0739   244.6
4867.000     0.7267   0.0754   244.5
4868.000     0.6898   0.0769   244.4
4869.000     0.7536   0.0782   244.4
4870.000     0.8530   0.0793   244.3
4871.000     0.6852   0.0803   244.3
4872.000     0.8658   0.0810   244.2
4873.000     0.7863   0.0817   244.1
4874.000     0.9789   0.0824   244.1
4875.000     0.8921   0.0832   244.0
4876.000     0.8666   0.0839   243.9
4877.000     0.9160   0.0847   243.9
4878.000     0.8092   0.0854   243.8
4879.000     0.9012   0.0860   243.7
4880.000     0.8483   0.0865   243.7
4881.000     0.8202   0.0868   243.6
4882.000     0.8925   0.0870   243.6
4883.000     0.8593   0.0870   243.5
4884.000     0.9864   0.0869   243.4
4885.000     0.8939   0.0867   243.4
4886.000     0.8940   0.0864   243.3
4887.000     0.8474   0.0862   243.2
4888.000     0.9718   0.0861   243.2
4889.000     0.6999   0.0861   243.1
4890.000     0.7024   0.0863   243.0
4891.000     0.7644   0.0867   243.0
4892.000     0.8755   0.0874   242.9
4893.000     0.7075   0.0883   242.8
4894.000     0.7979   0.0893   242.8
4895.000     0.9652   0.0903   242.7
4896.000     0.9622   0.0913   242.7
4897.000     0.7858   0.0921   242.6
4898.000     0.9924   0.0927   242.5
4899.000     1.0748   0.0931   242.5
4900.000     1.1329   0.0932   242.4
4901.000     0.9480   0.0931   242.3
4902.000     0.9576   0.0930   242.3
4903.000     0.9188   0.0928   242.2
4904.000     1.0839   0.0926   242.1
4905.000     0.9732   0.0924   242.1
4906.000     0.8356   0.0922   242.0
4907.000     0.9984   0.0920   242.0
4908.000     0.8619   0.0918   241.9
4909.000     0.9707   0.0916   241.8
4910.000     0.7972   0.0914   241.8
4911.000     0.9015   0.0912   241.7
4912.000     1.1331   0.0910   241.6
4913.000     0.8003   0.0909   241.6
4914.000     0.9293   0.0908   241.5
4915.000     1.0114   0.0905   241.4
4916.000     0.8810   0.0902   241.4
4917.000     0.9942   0.0897   241.3
4918.000     0.9331   0.0891   241.2
4919.000     0.8298   0.0884   241.2
4920.000     0.8084   0.0878   241.1
4921.000     0.8908   0.0873   241.1
4922.000     0.7148   0.0871   241.0
4923.000     0.7602   0.0872   240.9
4924.000     0.8937   0.0876   240.9
4925.000     0.7754   0.0883   240.8
4926.000     0.8697   0.0892   240.7
4927.000     0.7918   0.0902   240.7
4928.000     1.0248   0.0911   240.6
4929.000     1.0011   0.0918   240.5
4930.000     0.9654   0.0924   240.5
4931.000     0.9440   0.0926   240.4
4932.000     0.8769   0.0926   240.4
4933.000     0.8170   0.0924   240.3
4934.000     1.1164   0.0920   240.2
4935.000     0.9725   0.0916   240.2
4936.000     0.8965   0.0911   240.1
4937.000     0.9486   0.0908   240.0
4938.000     0.9933   0.0906   240.0
4939.000     1.0258   0.0907   239.9
4940.000     1.0630   0.0909   239.8
4941.000     0.9821   0.0914   239.8
4942.000     0.8446   0.0920   239.7
4943.000     0.9353   0.0928   239.6
4944.000     0.9830   0.0935   239.6
4945.000     0.9349   0.0943   239.5
4946.000     0.9570   0.0949   239.5
4947.000     0.6586   0.0954   239.4
4948.000     1.1194   0.0958   239.3
4949.000     0.9453   0.0961   239.3
4950.000     1.1279   0.0962   239.2
4951.000     1.0526   0.0961   239.1
4952.000     0.9986   0.0959   239.1
4953.000     1.1507   0.0955   239.0
4954.000     0.8838   0.0950   238.9
4955.000     1.2056   0.0944   238.9
4956.000     0.9464   0.0937   238.8
4957.000     0.7583   0.0932   238.8
4958.000     0.8622   0.0928   238.7
4959.000     0.9378   0.0926   238.6
4960.000     0.7571   0.0927   238.6
4961.000     0.9160   0.0929   238.5
4962.000     0.8885   0.0932   238.4
4963.000     0.8675   0.0935   238.4
4964.000     0.8845   0.0937   238.3
4965.000     0.8634   0.0938   238.2
4966.000     0.9573   0.0938   238.2
4967.000     0.9646   0.0938   238.1
4968.000     0.9248   0.0938   238.0
4969.000     0.9440   0.0938   238.0
4970.000     0.9680   0.0939   237.9
4971.000     0.9945   0.0941   237.9
4972.000     0.9650   0.0943   237.8
4973.000     1.1235   0.0946   237.7
4974.000     1.1110   0.0948   237.7
4975.000     0.8490   0.0949   237.6
4976.000     0.8463   0.0947   237.5
4977.000     0.8461   0.0944   237.5
4978.000     1.0110   0.0938   237.4
4979.000     0.8749   0.0931   237.3
4980.000     1.0319   0.0922   237.3
4981.000     0.8286   0.0913   237.2
4982.000     0.7750   0.0905   237.2
4983.000     0.7431   0.0899   237.1
4984.000     0.7460   0.0895   237.0
4985.000     0.8573   0.0895   237.0
4986.000     1.0811   0.0897   236.9
4987.000     0.9661   0.0901   236.8
4988.000     0.9182   0.0907   236.8
4989.000     0.8476   0.0913   236.7
4990.000     0.8881   0.0919   236.6
4991.000     0.8518   0.0925   236.6
4992.000     0.8915   0.0929   236.5
4993.000     0.9509   0.0932   236.4
4994.000     0.9949   0.0935   236.4
4995.000     0.9019   0.0936   236.3
4996.000     0.9966   0.0936   236.3
4997.000     0.9274   0.0934   236.2
4998.000     0.8960   0.0932   236.1
4999.000     0.9689   0.0928   236.1
5000.000     0.8768   0.0924   236.0
5001.000     0.9266   0.0919   235.9
5002.000     0.9121   0.0914   235.9
5003.000     1.0049   0.0909   235.8
5004.000     0.8984   0.0906   235.7
5005.000     0.9349   0.0903   235.7
5006.000     0.8086   0.0901   235.6
5007.000     0.8796   0.0900   235.6
5008.000     1.0170   0.0900   235.5
5009.000     1.0215   0.0899   235.4
5010.000     0.9600   0.0899   235.4
5011.000     0.8487   0.0897   235.3
5012.000     0.8229   0.0895   235.2
5013.000     0.8186   0.0892   235.2
5014.000     0.8401   0.0889   235.1
5015.000     0.9197   0.0887   235.0
5016.000     0.8220   0.0886   235.0
5017.000     0.7945   0.0886   234.9
5018.000     0.7820   0.0887   234.8
5019.000     0.8250   0.0890   234.8
5020.000     0.7079   0.0894   234.7
5021.000     0.7625   0.0898   234.7
5022.000     0.8146   0.0903   234.6
5023.000     0.8771   0.0908   234.5
5024.000     1.0618   0.0913   234.5
5025.000     0.9902   0.0918   234.4
5026.000     0.9432   0.0923   234.3
5027.000     0.7799   0.0928   234.3
5028.000     0.8847   0.0933   234.2
5029.000     0.9975   0.0938   234.1
5030.000     1.0625   0.0942   234.1
5031.000     0.7252   0.0946   234.0
5032.000     1.0779   0.0948   234.0
5033.000     0.9324   0.0949   233.9
5034.000     1.0343   0.0947   233.8
5035.000     0.8896   0.0944   233.8
5036.000     0.9319   0.0937   233.7
5037.000     0.8174   0.0930   233.6
5038.000     0.9296   0.0921   233.6
5039.000     1.0550   0.0914   233.5
5040.000     1.0269   0.0908   233.4
5041.000     0.9794   0.0904   233.4
5042.000     0.8313   0.0904   233.3
5043.000     0.8859   0.0908   233.2
5044.000     0.8601   0.0914   233.2
5045.000     0.9534   0.0922   233.1
5046.000     1.0209   0.0929   233.1
5047.000     0.8253   0.0936   233.0
5048.000     0.8907   0.0941   232.9
5049.000     1.0325   0.0945   232.9
5050.000     1.0514   0.0947   232.8
5051.000     0.8335   0.0949   232.7
5052.000     0.9433   0.0951   232.7
5053.000     1.0723   0.0954   232.6
5054.000     1.0768   0.0959   232.5
5055.000     0.9288   0.0964   232.5
5056.000     1.0752   0.0970   232.4
5057.000     1.0124   0.0976   232.4
5058.000     0.8872   0.0981   232.3
5059.000     1.1516   0.0985   232.2
5060.000     0.9463   0.0987   232.2
5061.000     0.9747   0.0986   232.1
5062.000     0.8284   0.0984   232.0
5063.000     0.9315   0.0980   232.0
5064.000     0.9053   0.0975   231.9
5065.000     0.7967   0.0969   231.8
5066.000     1.0057   0.0964   231.8
5067.000     0.8903   0.0959   231.7
5068.000     1.0438   0.0955   231.6
5069.000     0.9243   0.0953   231.6
5070.000     1.0591   0.0952   231.5
5071.000     0.9562   0.0951   231.5
5072.000     0.9327   0.0951   231.4
5073.000     0.9312   0.0950   231.3
5074.000     0.8689   0.0949   231.3
5075.000     0.9003   0.0947   231.2
5076.000     1.0224   0.0945   231.1
5077.000     1.0173   0.0941   231.1
5078.000     0.9238   0.0936   231.0
5079.000     0.9232   0.0932   230.9
5080.000     0.8006   0.0928   230.9
5081.000     0.8789   0.0925   230.8
5082.000     0.8750   0.0924   230.8
5083.000     0.8031   0.0926   230.7
5084.000     1.0410   0.0930   230.6
5085.000     0.9169   0.0936   230.6
5086.000     0.9313   0.0943   230.5
5087.000     1.0247   0.0951   230.4
5088.000     0.8701   0.0958   230.4
5089.000     1.0313   0.0965   230.3
5090.000     0.7514   0.0971   230.2
5091.000     0.9198   0.0976   230.2
5092.000     0.7822   0.0979   230.1
5093.000     1.1015   0.0980   230.0
5094.000     1.0523   0.0980   230.0
5095.000     0.9147   0.0977   229.9
5096.000     0.9739   0.0973   229.9
5097.000     0.8859   0.0968   229.8
5098.000     1.0032   0.0963   229.7
5099.000     1.0332   0.0959   229.7
5100.000     0.8973   0.0956   229.6
5101.000     0.9907   0.0954   229.5
5102.000     0.8718   0.0953   229.5
5103.000     0.9222   0.0954   229.4
5104.000     0.9749   0.0954   229.3
5105.000     1.0272   0.0954   229.3
5106.000     0.8911   0.0954   229.2
5107.000     0.9431   0.0953   229.2
5108.000     0.9961   0.0953   229.1
5109.000     1.0267   0.0953   229.0
5110.000     1.0884   0.0954   229.0
5111.000     0.9416   0.0957   228.9
5112.000     1.1471   0.0961   228.8
5113.000     0.8901   0.0967   228.8
5114.000     1.0557   0.0973   228.7
5115.000     1.1364   0.0979   228.6
5116.000     1.1678   0.0984   228.6
5117.000     0.9780   0.0988   228.5
5118.000     0.8862   0.0990   228.4
5119.000     0.8392   0.0989   228.4
5120.000     0.9447   0.0986   228.3
5121.000     0.8016   0.0981   228.3
5122.000     0.8983   0.0974   228.2
5123.000     0.7913   0.0967   228.1
5124.000     0.9915   0.0959   228.1
5125.000     1.0583   0.0952   228.0
5126.000     0.9319   0.0946   227.9
5127.000     1.0810   0.0943   227.9
5128.000     0.9098   0.0941   227.8
5129.000     1.0024   0.0942   227.7
5130.000     0.8542   0.0944   227.7
5131.000     0.9698   0.0947   227.6
5132.000     1.0289   0.0951   227.6
5133.000     0.9890   0.0955   227.5
5134.000     1.0589   0.0958   227.4
5135.000     0.9760   0.0960   227.4
5136.000     0.9700   0.0960   227.3
5137.000     0.9770   0.0959   227.2
5138.000     1.0744   0.0957   227.2
5139.000     0.9926   0.0954   227.1
5140.000     0.9962   0.0950   227.0
5141.000     0.9681   0.0947   227.0
5142.000     1.0575   0.0944   226.9
5143.000     0.7220   0.0943   226.8
5144.000     0.8835   0.0942   226.8
5145.000     0.9475   0.0942   226.7
5146.000     0.9559   0.0942   226.7
5147.000     0.8036   0.0943   226.6
5148.000     1.0918   0.0944   226.5
5149.000     0.9628   0.0945   226.5
5150.000     0.8950   0.0946   226.4
5151.000     1.0814   0.0947   226.3
5152.000     1.0412   0.0949   226.3
5153.000     0.8117   0.0952   226.2
5154.000     0.7468   0.0956   226.1
5155.000     0.8782   0.0962   226.1
5156.000     1.0525   0.0968   226.0
5157.000     1.0558   0.0974   226.0
5158.000     1.0138   0.0979   225.9
5159.000     1.0656   0.0983   225.8
5160.000     0.9655   0.0984   225.8
5161.000     1.1000   0.0981   225.7
5162.000     1.0585   0.0974   225.6
5163.000     0.8751   0.0962   225.6
5164.000     0.9415   0.0947   225.5
5165.000     0.9359   0.0928   225.4
5166.000     0.9858   0.0907   225.4
5167.000     0.8028   0.0887   225.3
5168.000     0.8623   0.0868   225.2
5169.000     0.9027   0.0853   225.2
5170.000     0.8013   0.0842   225.1
5171.000     0.9161   0.0837   225.1
5172.000     0.9041   0.0838   225.0
5173.000     0.7964   0.0844   224.9
5174.000     0.8537   0.0855   224.9
5175.000     0.8880   0.0870   224.8
5176.000     0.8834   0.0885   224.7
5177.000     0.8036   0.0900   224.7
5178.000     0.8418   0.0912   224.6
5179.000     1.0828   0.0919   224.5
5180.000     0.8819   0.0921   224.5
5181.000     0.9689   0.0919   224.4
5182.000     0.8668   0.0913   224.4
5183.000     0.7292   0.0907   224.3
5184.000     1.0883   0.0901   224.2
5185.000     0.8237   0.0899   224.2
5186.000     0.9099   0.0902   224.1
5187.000     0.8289   0.0908   224.0
5188.000     0.8771   0.0916   224.0
5189.000     0.9157   0.0926   223.9
5190.000     0.8906   0.0935   223.8
5191.000     0.9860   0.0942   223.8
5192.000     1.1100   0.0948   223.7
5193.000     0.9188   0.0952   223.6
5194.000     1.0736   0.0955   223.6
5195.000     0.8973   0.0959   223.5
5196.000     1.0029   0.0963   223.5
5197.000     0.9100   0.0968   223.4
5198.000     0.9691   0.0973   223.3
5199.000     0.9720   0.0978   223.3
5200.000     1.1082   0.0981   223.2
5201.000     1.0510   0.0983   223.1
5202.000     1.0292   0.0982   223.1
5203.000     0.9499   0.0978   223.0
5204.000     1.0587   0.0972   222.9
5205.000     1.0534   0.0965   222.9
5206.000     0.9776   0.0959   222.8
5207.000     0.9012   0.0953   222.8
5208.000     0.9746   0.0950   222.7
5209.000     0.8186   0.0951   222.6
5210.000     1.0571   0.0955   222.6
5211.000     0.7730   0.0961   222.5
5212.000     1.0860   0.0970   222.4
5213.000     0.8917   0.0980   222.4
5214.000     0.9247   0.0989   222.3
5215.000     0.9530   0.0997   222.2
5216.000     1.0741   0.1005   222.2
5217.000     0.9598   0.1010   222.1
5218.000     1.1051   0.1015   222.0
5219.000     1.1312   0.1018   222.0
5220.000     1.1201   0.1020   221.9
5221.000     0.9192   0.1019   221.9
5222.000     1.1495   0.1017   221.8
5223.000     0.9551   0.1012   221.7
5224.000     1.2226   0.1005   221.7
5225.000     0.9552   0.0998   221.6
5226.000     0.7691   0.0990   221.5
5227.000     1.0873   0.0985   221.5
5228.000     0.9601   0.0982   221.4
5229.000     0.8741   0.0982   221.3
5230.000     0.8846   0.0985   221.3
5231.000     1.1568   0.0990   221.2
5232.000     0.9777   0.0997   221.2
5233.000     0.9670   0.1004   221.1
5234.000     1.0297   0.1011   221.0
5235.000     1.0670   0.1018   221.0
5236.000     0.9037   0.1025   220.9
5237.000     1.0585   0.1032   220.8
5238.000     0.9613   0.1039   220.8
5239.000     1.0439   0.1046   220.7
5240.000     1.0622   0.1052   220.6
5241.000     1.4025   0.1057   220.6
5242.000     1.1951   0.1060   220.5
5243.000     1.3698   0.1061   220.4
5244.000     1.0309   0.1061   220.4
5245.000     1.1638   0.1058   220.3
5246.000     1.0800   0.1054   220.3
5247.000     1.2101   0.1049   220.2
5248.000     0.8295   0.1043   220.1
5249.000     0.8966   0.1038   220.1
5250.000     0.8553   0.1033   220.0
5251.000     1.1217   0.1031   219.9
5252.000     0.9437   0.1030   219.9
5253.000     1.0650   0.1031   219.8
5254.000     1.0686   0.1033   219.7
5255.000     1.0095   0.1037   219.7
5256.000     1.1389   0.1042   219.6
5257.000     1.0231   0.1045   219.6
5258.000     1.1533   0.1047   219.5
5259.000     0.9772   0.1045   219.4
5260.000     1.0903   0.1041   219.4
5261.000     1.0997   0.1031   219.3
5262.000     0.8597   0.1019   219.2
5263.000     1.0194   0.1004   219.2
5264.000     0.9564   0.0988   219.1
5265.000     0.8970   0.0973   219.0
5266.000     1.1972   0.0960   219.0
5267.000     1.0346   0.0950   218.9
5268.000     1.0494   0.0943   218.8
5269.000     1.1173   0.0941   218.8
5270.000     1.0100   0.0943   218.7
5271.000     0.8968   0.0949   218.7
5272.000     1.0993   0.0958   218.6
5273.000     0.8753   0.0970   218.5
5274.000     0.8636   0.0983   218.5
5275.000     1.0330   0.0997   218.4
5276.000     1.0816   0.1011   218.3
5277.000     0.9532   0.1024   218.3
5278.000     0.9905   0.1035   218.2
5279.000     0.9686   0.1044   218.1
5280.000     1.1004   0.1051   218.1
5281.000     1.0541   0.1056   218.0
5282.000     1.0151   0.1060   218.0
5283.000     1.0533   0.1063   217.9
5284.000     1.1813   0.1067   217.8
5285.000     1.0624   0.1072   217.8
5286.000     1.0636   0.1079   217.7
5287.000     1.0503   0.1087   217.6
5288.000     1.2640   0.1094   217.6
5289.000     1.1626   0.1102   217.5
5290.000     1.2412   0.1107   217.4
5291.000     1.1454   0.1110   217.4
5292.000     0.9377   0.1110   217.3
5293.000     1.0622   0.1107   217.2
5294.000     1.1207   0.1102   217.2
5295.000     1.2291   0.1094   217.1
5296.000     0.8263   0.1085   217.1
5297.000     1.1509   0.1077   217.0
5298.000     1.1936   0.1070   216.9
5299.000     0.9577   0.1066   216.9
5300.000     0.9050   0.1064   216.8
5301.000     1.4004   0.1066   216.7
5302.000     1.0684   0.1071   216.7
5303.000     1.0020   0.1078   216.6
5304.000     1.1019   0.1087   216.5
5305.000     1.2051   0.1096   216.5
5306.000     1.0238   0.1105   216.4
5307.000     1.2656   0.1113   216.4
5308.000     0.9338   0.1119   216.3
5309.000     1.1103   0.1124   216.2
5310.000     1.1309   0.1127   216.2
5311.000     1.2955   0.1128   216.1
5312.000     1.1130   0.1128   216.0
5313.000     1.1143   0.1127   216.0
5314.000     1.0882   0.1125   215.9
5315.000     0.8493   0.1122   215.8
5316.000     1.0606   0.1118   215.8
5317.000     1.3640   0.1114   215.7
5318.000     1.0923   0.1110   215.6
5319.000     1.1905   0.1106   215.6
5320.000     1.0659   0.1101   215.5
5321.000     1.1231   0.1096   215.5
5322.000     1.0603   0.1090   215.4
5323.000     0.9933   0.1082   215.3
5324.000     1.1192   0.1073   215.3
5325.000     0.9808   0.1063   215.2
5326.000     1.1573   0.1053   215.1
5327.000     1.1149   0.1044   215.1
5328.000     0.9552   0.1037   215.0
5329.000     0.9556   0.1033   214.9
5330.000     1.1614   0.1034   214.9
5331.000     1.1513   0.1039   214.8
5332.000     1.0080   0.1047   214.8
5333.000     1.0385   0.1057   214.7
5334.000     1.0350   0.1068   214.6
5335.000     1.2257   0.1077   214.6
5336.000     1.1730   0.1085   214.5
5337.000     1.1423   0.1089   214.4
5338.000     0.9924   0.1092   214.4
5339.000     0.9766   0.1092   214.3
5340.000     1.1934   0.1091   214.2
5341.000     1.2717   0.1090   214.2
5342.000     0.7921   0.1089   214.1
5343.000     0.9148   0.1089   214.0
5344.000     1.1600   0.1091   214.0
5345.000     1.0658   0.1092   213.9
5346.000     0.9912   0.1095   213.9
5347.000     1.1718   0.1097   213.8
5348.000     0.9541   0.1100   213.7
5349.000     1.2038   0.1104   213.7
5350.000     1.0600   0.1109   213.6
5351.000     1.2989   0.1114   213.5
5352.000     1.0983   0.1121   213.5
5353.000     1.2390   0.1129   213.4
5354.000     1.0855   0.1137   213.3
5355.000     1.0330   0.1145   213.3
5356.000     1.0833   0.1152   213.2
5357.000     1.1648   0.1158   213.2
5358.000     0.9828   0.1161   213.1
5359.000     1.2905   0.1162   213.0
5360.000     1.1567   0.1160   213.0
5361.000     0.8863   0.1156   212.9
5362.000     0.9794   0.1150   212.8
5363.000     1.0125   0.1143   212.8
5364.000     1.0082   0.1135   212.7
5365.000     1.1477   0.1126   212.6
5366.000     1.0960   0.1118   212.6
5367.000     1.1539   0.1110   212.5
5368.000     1.0239   0.1103   212.4
5369.000     1.2035   0.1098   212.4
5370.000     1.0172   0.1094   212.3
5371.000     1.0036   0.1093   212.3
5372.000     1.1455   0.1095   212.2
5373.000     0.9877   0.1099   212.1
5374.000     1.2081   0.1107   212.1
5375.000     1.2840   0.1115   212.0
5376.000     1.2319   0.1124   211.9
5377.000     1.0357   0.1132   211.9
5378.000     1.0798   0.1139   211.8
5379.000     1.2092   0.1143   211.7
5380.000     1.1212   0.1145   211.7
5381.000     1.3028   0.1145   211.6
5382.000     1.3042   0.1144   211.6
5383.000     1.2724   0.1143   211.5
5384.000     1.3260   0.1142   211.4
5385.000     1.0454   0.1140   211.4
5386.000     1.0683   0.1139   211.3
5387.000     1.2032   0.1137   211.2
5388.000     1.3395   0.1135   211.2
5389.000     1.0289   0.1131   211.1
5390.000     1.1015   0.1127   211.0
5391.000     1.1776   0.1122   211.0
5392.000     1.1050   0.1116   210.9
5393.000     0.8669   0.1110   210.8
5394.000     1.0435   0.1105   210.8
5395.000     1.0500   0.1100   210.7
5396.000     1.0554   0.1096   210.7
5397.000     0.9838   0.1094   210.6
5398.000     1.0652   0.1092   210.5
5399.000     0.8579   0.1092   210.5
5400.000     0.9914   0.1092   210.4
5401.000     1.0307   0.1091   210.3
5402.000     1.0835   0.1090   210.3
5403.000     1.1712   0.1088   210.2
5404.000     1.0191   0.1085   210.1
5405.000     1.1360   0.1081   210.1
5406.000     1.0446   0.1078   210.0
5407.000     0.9302   0.1077   210.0
5408.000     1.0930   0.1077   209.9
5409.000     1.1265   0.1080   209.8
5410.000     1.2421   0.1086   209.8
5411.000     1.0851   0.1093   209.7
5412.000     1.1367   0.1102   209.6
5413.000     1.2377   0.1112   209.6
5414.000     1.1414   0.1121   209.5
5415.000     0.9529   0.1130   209.4
5416.000     1.0627   0.1137   209.4
5417.000     1.2260   0.1143   209.3
5418.000     1.1373   0.1147   209.2
5419.000     1.2047   0.1149   209.2
5420.000     1.2802   0.1150   209.1
5421.000     1.1807   0.1150   209.1
5422.000     1.1689   0.1149   209.0
5423.000     1.1339   0.1147   208.9
5424.000     1.1777   0.1146   208.9
5425.000     1.1315   0.1144   208.8
5426.000     1.2038   0.1141   208.7
5427.000     1.1150   0.1138   208.7
5428.000     1.1399   0.1135   208.6
5429.000     0.9020   0.1131   208.5
5430.000     1.1149   0.1127   208.5
5431.000     1.0270   0.1122   208.4
5432.000     1.0473   0.1119   208.4
5433.000     1.0900   0.1117   208.3
5434.000     1.0882   0.1117   208.2
5435.000     1.2269   0.1120   208.2
5436.000     1.1687   0.1125   208.1
5437.000     1.1139   0.1132   208.0
5438.000     1.0346   0.1141   208.0
5439.000     0.9060   0.1150   207.9
5440.000     1.1614   0.1158   207.8
5441.000     1.3821   0.1165   207.8
5442.000     1.0227   0.1168   207.7
5443.000     1.2918   0.1168   207.6
5444.000     1.1121   0.1165   207.6
5445.000     1.0759   0.1160   207.5
5446.000     1.3282   0.1154   207.5
5447.000     1.2344   0.1149   207.4
5448.000     1.0779   0.1145   207.3
5449.000     1.1914   0.1143   207.3
5450.000     1.0407   0.1143   207.2
5451.000     1.2619   0.1144   207.1
5452.000     1.3244   0.1145   207.1
5453.000     1.0571   0.1145   207.0
5454.000     1.3120   0.1145   206.9
5455.000     1.1132   0.1145   206.9
5456.000     1.1702   0.1144   206.8
5457.000     1.2541   0.1145   206.8
5458.000     1.1925   0.1146   206.7
5459.000     0.9911   0.1147   206.6
5460.000     1.1162   0.1149   206.6
5461.000     1.1036   0.1151   206.5
5462.000     1.1872   0.1153   206.4
5463.000     1.2356   0.1153   206.4
5464.000     1.3748   0.1154   206.3
5465.000     1.2996   0.1155   206.2
5466.000     1.1199   0.1156   206.2
5467.000     1.1641   0.1157   206.1
5468.000     1.2960   0.1158   206.0
5469.000     1.1359   0.1158   206.0
5470.000     0.9244   0.1158   205.9
5471.000     1.1059   0.1155   205.9
5472.000     1.0933   0.1152   205.8
5473.000     1.1636   0.1147   205.7
5474.000     1.0561   0.1141   205.7
5475.000     1.0276   0.1135   205.6
5476.000     1.0720   0.1130   205.5
5477.000     0.9978   0.1126   205.5
5478.000     1.2957   0.1124   205.4
5479.000     1.2032   0.1124   205.3
5480.000     0.9245   0.1126   205.3
5481.000     1.1139   0.1130   205.2
5482.000     1.2651   0.1135   205.2
5483.000     1.2158   0.1140   205.1
5484.000     1.1709   0.1146   205.0
5485.000     1.1478   0.1151   205.0
5486.000     1.0725   0.1156   204.9
5487.000     1.0153   0.1159   204.8
5488.000     1.1719   0.1162   204.8
5489.000     1.1965   0.1164   204.7
5490.000     1.2409   0.1166   204.6
5491.000     1.2614   0.1167   204.6
5492.000     1.2458   0.1169   204.5
5493.000     0.9775   0.1170   204.4
5494.000     1.0051   0.1171   204.4
5495.000     1.2829   0.1172   204.3
5496.000     1.2802   0.1172   204.3
5497.000     1.0750   0.1172   204.2
5498.000     1.0748   0.1172   204.1
5499.000     1.1848   0.1172   204.1
5500.000     0.9989   0.1171   204.0
5501.000     1.0859   0.1170   203.9
5502.000     1.2268   0.1168   203.9
5503.000     1.1277   0.1166   203.8
5504.000     1.2301   0.1165   203.7
5505.000     1.0130   0.1163   203.7
5506.000     1.2585   0.1161   203.6
5507.000     1.3925   0.1160   203.6
5508.000     1.0773   0.1159   203.5
5509.000     1.2392   0.1158   203.4
5510.000     1.0159   0.1157   203.4
5511.000     1.0489   0.1157   203.3
5512.000     1.2385   0.1157   203.2
5513.000     1.1521   0.1157   203.2
5514.000     1.0881   0.1159   203.1
5515.000     1.1791   0.1162   203.0
5516.000     1.0091   0.1167   203.0
5517.000     1.1678   0.1174   202.9
5518.000     1.3387   0.1181   202.8
5519.000     1.2791   0.1188   202.8
5520.000     1.2928   0.1194   202.7
5521.000     1.2355   0.1198   202.7
5522.000     1.3886   0.1200   202.6
5523.000     1.0147   0.1200   202.5
5524.000     1.0807   0.1198   202.5
5525.000     1.2988   0.1194   202.4
5526.000     1.4072   0.1188   202.3
5527.000     1.2642   0.1183   202.3
5528.000     1.0987   0.1179   202.2
5529.000     1.1589   0.1176   202.1
5530.000     1.1835   0.1175   202.1
5531.000     1.3997   0.1176   202.0
5532.000     1.3795   0.1178   202.0
5533.000     1.3295   0.1181   201.9
5534.000     1.3301   0.1185   201.8
5535.000     0.9682   0.1189   201.8
5536.000     1.0536   0.1192   201.7
5537.000     1.1969   0.1196   201.6
5538.000     1.1811   0.1200   201.6
5539.000     1.3852   0.1204   201.5
5540.000     1.3190   0.1207   201.4
5541.000     1.2617   0.1210   201.4
5542.000     1.2804   0.1213   201.3
5543.000     1.2103   0.1215   201.2
5544.000     1.2074   0.1216   201.2
5545.000     1.1519   0.1218   201.1
5546.000     1.2328   0.1219   201.1
5547.000     1.0789   0.1221   201.0
5548.000     1.3564   0.1223   200.9
5549.000     1.1934   0.1226   200.9
5550.000     1.2333   0.1228   200.8
5551.000     1.1433   0.1230   200.7
5552.000     1.0699   0.1230   200.7
5553.000     1.2055   0.1230   200.6
5554.000     1.2177   0.1229   200.5
5555.000     1.1947   0.1227   200.5
5556.000     1.4141   0.1226   200.4
5557.000     1.2028   0.1224   200.4
5558.000     1.1383   0.1223   200.3
5559.000     1.3059   0.1221   200.2
5560.000     1.2291   0.1220   200.2
5561.000     1.4614   0.1217   200.1
5562.000     1.2357   0.1215   200.0
5563.000     1.1392   0.1212   200.0
5564.000     1.2770   0.1209   199.9
5565.000     1.2726   0.1205   199.8
5566.000     0.8713   0.1203   199.8
5567.000     1.2511   0.1200   199.7
5568.000     1.0535   0.1199   199.6
5569.000     1.2173   0.1198   199.6
5570.000     1.2400   0.1198   199.5
5571.000     1.2714   0.1198   199.5
5572.000     1.1064   0.1199   199.4
5573.000     1.4216   0.1201   199.3
5574.000     1.0918   0.1204   199.3
5575.000     0.9395   0.1206   199.2
5576.000     1.2785   0.1210   199.1
5577.000     1.1107   0.1213   199.1
5578.000     1.0680   0.1216   199.0
5579.000     1.3110   0.1218   198.9
5580.000     1.1058   0.1219   198.9
5581.000     1.2666   0.1219   198.8
5582.000     1.1895   0.1217   198.8
5583.000     1.0916   0.1212   198.7
5584.000     1.0133   0.1206   198.6
5585.000     0.9131   0.1199   198.6
5586.000     1.3939   0.1190   198.5
5587.000     1.3059   0.1181   198.4
5588.000     1.2098   0.1174   198.4
5589.000     1.2063   0.1168   198.3
5590.000     1.2331   0.1165   198.2
5591.000     1.1971   0.1165   198.2
5592.000     1.2957   0.1167   198.1
5593.000     1.1609   0.1171   198.0
5594.000     1.2825   0.1176   198.0
5595.000     0.9929   0.1181   197.9
5596.000     1.0789   0.1185   197.9
5597.000     1.1631   0.1188   197.8
5598.000     1.3201   0.1189   197.7
5599.000     1.3033   0.1189   197.7
5600.000     1.0926   0.1189   197.6
5601.000     1.1352   0.1190   197.5
5602.000     1.1068   0.1192   197.5
5603.000     1.1554   0.1195   197.4
5604.000     1.2169   0.1202   197.3
5605.000     1.2403   0.1210   197.3
5606.000     1.2198   0.1220   197.2
5607.000     1.4539   0.1230   197.2
5608.000     1.1642   0.1239   197.1
5609.000     1.4764   0.1246   197.0
5610.000     1.1284   0.1250   197.0
5611.000     1.1587   0.1251   196.9
5612.000     1.2719   0.1249   196.8
5613.000     1.5963   0.1245   196.8
5614.000     1.1941   0.1238   196.7
5615.000     1.2504   0.1231   196.6
5616.000     0.8414   0.1224   196.6
5617.000     1.2450   0.1219   196.5
5618.000     1.1673   0.1216   196.4
5619.000     1.2944   0.1215   196.4
5620.000     1.3814   0.1216   196.3
5621.000     1.1316   0.1217   196.3
5622.000     1.0370   0.1218   196.2
5623.000     1.4504   0.1220   196.1
5624.000     1.1758   0.1221   196.1
5625.000     1.2474   0.1222   196.0
5626.000     1.1338   0.1224   195.9
5627.000     1.1995   0.1227   195.9
5628.000     1.1125   0.1231   195.8
5629.000     1.2642   0.1236   195.7
5630.000     1.2221   0.1242   195.7
5631.000     1.3957   0.1247   195.6
5632.000     1.0585   0.1250   195.6
5633.000     1.3138   0.1252   195.5
5634.000     1.1595   0.1252   195.4
5635.000     1.2039   0.1249   195.4
5636.000     1.1738   0.1246   195.3
5637.000     1.4924   0.1242   195.2
5638.000     1.3340   0.1239   195.2
5639.000     1.3220   0.1235   195.1
5640.000     1.3643   0.1233   195.0
5641.000     1.2090   0.1232   195.0
5642.000     1.1352   0.1232   194.9
5643.000     1.2118   0.1234   194.8
5644.000     1.1415   0.1236   194.8
5645.000     1.2043   0.1238   194.7
5646.000     1.3130   0.1242   194.7
5647.000     1.4664   0.1245   194.6
5648.000     1.3070   0.1248   194.5
5649.000     1.4036   0.1250   194.5
5650.000     1.3940   0.1251   194.4
5651.000     1.3493   0.1252   194.3
5652.000     1.3333   0.1252   194.3
5653.000     1.0178   0.1249   194.2
5654.000     1.2378   0.1246   194.1
5655.000     1.1675   0.1241   194.1
5656.000     1.4490   0.1234   194.0
5657.000     1.2028   0.1227   194.0
5658.000     1.4406   0.1221   193.9
5659.000     0.9805   0.1216   193.8
5660.000     1.3109   0.1213   193.8
5661.000     1.3155   0.1212   193.7
5662.000     1.2342   0.1213   193.6
5663.000     1.1885   0.1217   193.6
5664.000     1.3058   0.1222   193.5
5665.000     1.4346   0.1227   193.4
5666.000     1.1892   0.1232   193.4
5667.000     1.2151   0.1238   193.3
5668.000     1.2734   0.1242   193.2
5669.000     1.1943   0.1247   193.2
5670.000     1.3788   0.1251   193.1
5671.000     1.4345   0.1256   193.1
5672.000     1.3585   0.1261   193.0
5673.000     1.3070   0.1267   192.9
5674.000     1.3349   0.1272   192.9
5675.000     1.0354   0.1276   192.8
5676.000     1.1669   0.1279   192.7
5677.000     1.0665   0.1281   192.7
5678.000     1.4265   0.1281   192.6
5679.000     1.1204   0.1279   192.5
5680.000     1.3001   0.1276   192.5
5681.000     1.4894   0.1272   192.4
5682.000     1.3777   0.1267   192.4
5683.000     1.2778   0.1262   192.3
5684.000     1.1683   0.1258   192.2
5685.000     1.1742   0.1254   192.2
5686.000     1.2828   0.1252   192.1
5687.000     1.3020   0.1251   192.0
5688.000     1.2320   0.1252   192.0
5689.000     1.1261   0.1254   191.9
5690.000     1.0519   0.1258   191.8
5691.000     1.2181   0.1263   191.8
5692.000     1.1803   0.1268   191.7
5693.000     1.4309   0.1273   191.6
5694.000     1.4655   0.1277   191.6
5695.000     1.0237   0.1279   191.5
5696.000     1.2994   0.1279   191.5
5697.000     1.6071   0.1278   191.4
5698.000     1.4588   0.1275   191.3
5699.000     1.2201   0.1270   191.3
5700.000     1.3923   0.1265   191.2
5701.000     1.2818   0.1260   191.1
5702.000     1.2868   0.1255   191.1
5703.000     1.4728   0.1250   191.0
5704.000     1.1406   0.1245   190.9
5705.000     1.3819   0.1240   190.9
5706.000     1.1481   0.1235   190.8
5707.000     1.2940   0.1230   190.8
5708.000     1.2127   0.1225   190.7
5709.000     1.2298   0.1221   190.6
5710.000     1.5288   0.1220   190.6
5711.000     1.1324   0.1221   190.5
5712.000     1.4282   0.1224   190.4
5713.000     1.1402   0.1231   190.4
5714.000     1.2435   0.1240   190.3
5715.000     1.4097   0.1251   190.2
5716.000     1.2706   0.1262   190.2
5717.000     1.3088   0.1272   190.1
5718.000     1.2762   0.1282   190.0
5719.000     1.2921   0.1291   190.0
5720.000     1.4155   0.1299   189.9
5721.000     1.3993   0.1305   189.9
5722.000     1.2223   0.1309   189.8
5723.000     1.4140   0.1313   189.7
5724.000     1.3660   0.1314   189.7
5725.000     1.4253   0.1315   189.6
5726.000     1.4006   0.1314   189.5
5727.000     1.3950   0.1312   189.5
5728.000     1.2454   0.1310   189.4
5729.000     1.2120   0.1309   189.3
5730.000     1.4047   0.1308   189.3
5731.000     1.3391   0.1307   189.2
5732.000     1.4693   0.1308   189.2
5733.000     1.4398   0.1309   189.1
5734.000     1.5220   0.1311   189.0
5735.000     1.2781   0.1313   189.0
5736.000     1.2832   0.1315   188.9
5737.000     1.3297   0.1316   188.8
5738.000     1.2113   0.1317   188.8
5739.000     1.4178   0.1318   188.7
5740.000     1.6111   0.1318   188.6
5741.000     1.4273   0.1318   188.6
5742.000     1.4983   0.1318   188.5
5743.000     1.2460   0.1318   188.4
5744.000     1.4428   0.1318   188.4
5745.000     1.3641   0.1318   188.3
5746.000     1.1268   0.1318   188.3
5747.000     1.3044   0.1317   188.2
5748.000     1.2221   0.1316   188.1
5749.000     1.5165   0.1314   188.1
5750.000     1.0121   0.1312   188.0
5751.000     1.2337   0.1309   187.9
5752.000     1.3316   0.1306   187.9
5753.000     1.1887   0.1304   187.8
5754.000     1.4777   0.1302   187.7
5755.000     1.4563   0.1302   187.7
5756.000     1.3658   0.1303   187.6
5757.000     1.2437   0.1305   187.6
5758.000     1.1846   0.1308   187.5
5759.000     1.3603   0.1309   187.4
5760.000     1.3805   0.1310   187.4
5761.000     1.3591   0.1311   187.3
5762.000     1.2989   0.1311   187.2
5763.000     1.3732   0.1312   187.2
5764.000     1.2634   0.1314   187.1
5765.000     1.3737   0.1317   187.0
5766.000     1.3706   0.1321   187.0
5767.000     1.3062   0.1325   186.9
5768.000     1.2085   0.1330   186.8
5769.000     1.2592   0.1333   186.8
5770.000     1.3989   0.1335   186.7
5771.000     1.4066   0.1335   186.7
5772.000     1.4632   0.1334   186.6
5773.000     1.3194   0.1332   186.5
5774.000     1.2314   0.1330   186.5
5775.000     1.1660   0.1327   186.4
5776.000     1.3416   0.1323   186.3
5777.000     1.6313   0.1319   186.3
5778.000     1.2176   0.1314   186.2
5779.000     1.3460   0.1308   186.1
5780.000     1.2019   0.1300   186.1
5781.000     1.4546   0.1293   186.0
5782.000     1.2770   0.1285   186.0
5783.000     1.5337   0.1280   185.9
5784.000     1.3127   0.1276   185.8
5785.000     1.2469   0.1275   185.8
5786.000     1.2584   0.1277   185.7
5787.000     1.0296   0.1281   185.6
5788.000     1.2786   0.1287   185.6
5789.000     1.4045   0.1294   185.5
5790.000     1.2427   0.1300   185.4
5791.000     1.3273   0.1307   185.4
5792.000     1.2100   0.1312   185.3
5793.000     1.3101   0.1317   185.2
5794.000     1.2419   0.1322   185.2
5795.000     1.4608   0.1325   185.1
5796.000     1.2053   0.1329   185.1
5797.000     1.3120   0.1332   185.0
5798.000     1.7678   0.1335   184.9
5799.000     1.3854   0.1338   184.9
5800.000     1.3380   0.1341   184.8
5801.000     1.2588   0.1344   184.7
5802.000     1.3130   0.1346   184.7
5803.000     1.3278   0.1348   184.6
5804.000     1.5392   0.1348   184.5
5805.000     1.5247   0.1348   184.5
5806.000     1.5651   0.1347   184.4
5807.000     1.1603   0.1346   184.4
5808.000     1.3210   0.1346   184.3
5809.000     1.1179   0.1347   184.2
5810.000     1.7499   0.1348   184.2
5811.000     1.4128   0.1350   184.1
5812.000     1.2289   0.1351   184.0
5813.000     1.2804   0.1353   184.0
5814.000     1.5074   0.1353   183.9
5815.000     0.8233   0.1354   183.8
5816.000     1.1989   0.1355   183.8
5817.000     1.2441   0.1356   183.7
5818.000     1.0879   0.1358   183.6
5819.000     1.4698   0.1361   183.6
5820.000     1.2401   0.1365   183.5
5821.000     1.3209   0.1369   183.5
5822.000     1.4907   0.1372   183.4
5823.000     1.4101   0.1375   183.3
5824.000     1.5342   0.1377   183.3
5825.000     1.6654   0.1379   183.2
5826.000     1.4202   0.1380   183.1
5827.000     1.3913   0.1381   183.1
5828.000     1.5725   0.1382   183.0
5829.000     1.0339   0.1382   182.9
5830.000     1.2859   0.1382   182.9
5831.000     1.3982   0.1382   182.8
5832.000     1.1284   0.1381   182.8
5833.000     1.4492   0.1380   182.7
5834.000     1.5465   0.1379   182.6
5835.000     1.3152   0.1379   182.6
5836.000     1.2005   0.1378   182.5
5837.000     1.3507   0.1378   182.4
5838.000     1.3706   0.1378   182.4
5839.000     1.1998   0.1379   182.3
5840.000     1.0954   0.1381   182.2
5841.000     1.2191   0.1382   182.2
5842.000     1.0887   0.1383   182.1
5843.000     1.2990   0.1384   182.0
5844.000     1.4502   0.1383   182.0
5845.000     1.5321   0.1382   181.9
5846.000     1.6102   0.1380   181.9
5847.000     1.2894   0.1376   181.8
5848.000     1.1948   0.1373   181.7
5849.000     1.3670   0.1368   181.7
5850.000     1.0615   0.1364   181.6
5851.000     1.2407   0.1359   181.5
5852.000     1.4490   0.1354   181.5
5853.000     1.1680   0.1348   181.4
5854.000     1.1969   0.1343   181.3
5855.000     1.2501   0.1338   181.3
5856.000     1.2698   0.1333   181.2
5857.000     1.6795   0.1330   181.2
5858.000     1.2496   0.1328   181.1
5859.000     1.3542   0.1328   181.0
5860.000     1.3421   0.1330   181.0
5861.000     1.2834   0.1333   180.9
5862.000     1.2828   0.1337   180.8
5863.000     1.4449   0.1342   180.8
5864.000     1.4209   0.1347   180.7
5865.000     1.3153   0.1351   180.6
5866.000     1.5431   0.1355   180.6
5867.000     1.4031   0.1359   180.5
5868.000     1.2929   0.1362   180.4
5869.000     1.4589   0.1366   180.4
5870.000     1.4900   0.1369   180.3
5871.000     1.2444   0.1372   180.3
5872.000     1.3841   0.1375   180.2
5873.000     1.3630   0.1377   180.1
5874.000     1.7340   0.1378   180.1
5875.000     1.4825   0.1377   180.0
5876.000     1.3224   0.1376   179.9
5877.000     1.4314   0.1374   179.9
5878.000     1.6518   0.1370   179.8
5879.000     1.2030   0.1367   179.7
5880.000     1.4813   0.1362   179.7
5881.000     1.4987   0.1358   179.6
5882.000     1.3024   0.1353   179.6
5883.000     1.4955   0.1347   179.5
5884.000     1.2972   0.1340   179.4
5885.000     1.3821   0.1329   179.4
5886.000     1.4237   0.1314   179.3
5887.000     1.2460   0.1295   179.2
5888.000     1.2612   0.1273   179.2
5889.000     1.3650   0.1250   179.1
5890.000     1.1806   0.1227   179.0
5891.000     1.0109   0.1208   179.0
5892.000     1.0421   0.1194   178.9
5893.000     1.3618   0.1185   178.8
5894.000     1.1915   0.1183   178.8
5895.000     1.2874   0.1187   178.7
5896.000     1.1496   0.1195   178.7
5897.000     0.9482   0.1206   178.6
5898.000     1.1481   0.1222   178.5
5899.000     1.0904   0.1240   178.5
5900.000     1.2648   0.1260   178.4
5901.000     1.4110   0.1282   178.3
5902.000     1.2900   0.1302   178.3
5903.000     1.1154   0.1320   178.2
5904.000     1.2720   0.1334   178.1
5905.000     1.3716   0.1345   178.1
5906.000     1.3604   0.1354   178.0
5907.000     1.2903   0.1359   178.0
5908.000     1.3324   0.1363   177.9
5909.000     1.5050   0.1366   177.8
5910.000     1.4113   0.1367   177.8
5911.000     1.2054   0.1367   177.7
5912.000     1.1895   0.1366   177.6
5913.000     1.4349   0.1364   177.6
5914.000     1.4747   0.1361   177.5
5915.000     1.5289   0.1358   177.4
5916.000     1.4037   0.1356   177.4
5917.000     1.4173   0.1356   177.3
5918.000     1.3981   0.1357   177.2
5919.000     1.3198   0.1359   177.2
5920.000     1.1987   0.1362   177.1
5921.000     1.4801   0.1365   177.1
5922.000     1.3064   0.1369   177.0
5923.000     1.5311   0.1372   176.9
5924.000     1.3261   0.1375   176.9
5925.000     1.2317   0.1377   176.8
5926.000     1.4328   0.1378   176.7
5927.000     1.3620   0.1378   176.7
5928.000     1.2274   0.1378   176.6
5929.000     1.1301   0.1377   176.5
5930.000     1.4382   0.1376   176.5
5931.000     1.3000   0.1376   176.4
5932.000     1.4263   0.1376   176.4
5933.000     1.4150   0.1376   176.3
5934.000     1.4618   0.1377   176.2
5935.000     1.3597   0.1378   176.2
5936.000     1.4180   0.1380   176.1
5937.000     1.2792   0.1381   176.0
5938.000     1.5828   0.1382   176.0
5939.000     1.3260   0.1383   175.9
5940.000     1.5546   0.1383   175.8
5941.000     1.4115   0.1384   175.8
5942.000     1.4931   0.1383   175.7
5943.000     1.6086   0.1383   175.6
5944.000     1.2903   0.1384   175.6
5945.000     1.5229   0.1384   175.5
5946.000     1.3243   0.1384   175.5
5947.000     1.4466   0.1384   175.4
5948.000     1.3577   0.1383   175.3
5949.000     1.4256   0.1382   175.3
5950.000     1.2206   0.1381   175.2
5951.000     1.4726   0.1380   175.1
5952.000     1.2671   0.1379   175.1
5953.000     1.4446   0.1379   175.0
5954.000     1.3957   0.1379   174.9
5955.000     1.3551   0.1380   174.9
5956.000     1.5138   0.1381   174.8
5957.000     1.5603   0.1383   174.8
5958.000     1.6094   0.1386   174.7
5959.000     1.0168   0.1390   174.6
5960.000     1.5644   0.1394   174.6
5961.000     1.4280   0.1399   174.5
5962.000     1.4030   0.1403   174.4
5963.000     1.6900   0.1407   174.4
5964.000     1.6439   0.1410   174.3
5965.000     1.6571   0.1412   174.2
5966.000     1.3619   0.1414   174.2
5967.000     1.5597   0.1415   174.1
5968.000     1.1497   0.1417   174.0
5969.000     1.3006   0.1419   174.0
5970.000     1.3738   0.1420   173.9
5971.000     1.4012   0.1422   173.9
5972.000     1.2923   0.1422   173.8
5973.000     1.6649   0.1422   173.7
5974.000     1.4257   0.1420   173.7
5975.000     1.2722   0.1417   173.6
5976.000     1.2535   0.1413   173.5
5977.000     1.4461   0.1409   173.5
5978.000     1.3717   0.1406   173.4
5979.000     1.4866   0.1403   173.3
5980.000     1.3348   0.1401   173.3
5981.000     1.4923   0.1400   173.2
5982.000     1.5736   0.1399   173.2
5983.000     1.2988   0.1397   173.1
5984.000     1.5135   0.1396   173.0
5985.000     1.4453   0.1395   173.0
5986.000     1.4600   0.1395   172.9
5987.000     1.2329   0.1396   172.8
5988.000     1.5623   0.1398   172.8
5989.000     1.5812   0.1401   172.7
5990.000     1.1901   0.1404   172.6
5991.000     1.5200   0.1408   172.6
5992.000     2.0135   0.1412   172.5
5993.000     1.4213   0.1415   172.4
5994.000     1.5998   0.1417   172.4
5995.000     1.4486   0.1419   172.3
5996.000     1.2038   0.1419   172.3
5997.000     1.5841   0.1419   172.2
5998.000     1.5463   0.1417   172.1
5999.000     1.4064   0.1416   172.1
6000.000     1.3845   0.1414   172.0
6001.000     1.1527   0.1412   171.9
6002.000     1.6444   0.1411   171.9
6003.000     1.7181   0.1409   171.8
6004.000     1.3563   0.1407   171.7
6005.000     1.4669   0.1405   171.7
6006.000     1.1147   0.1403   171.6
6007.000     1.3479   0.1401   171.6
6008.000     1.4773   0.1400   171.5
6009.000     1.3144   0.1400   171.4
6010.000     1.3174   0.1400   171.4
6011.000     1.3113   0.1402   171.3
6012.000     1.4198   0.1403   171.2
6013.000     1.7097   0.1405   171.2
6014.000     1.5488   0.1406   171.1
6015.000     1.3470   0.1406   171.0
6016.000     1.4870   0.1406   171.0
6017.000     1.6600   0.1405   170.9
6018.000     1.3672   0.1404   170.8
6019.000     1.3670   0.1403   170.8
6020.000     1.5383   0.1402   170.7
6021.000     1.4056   0.1401   170.7
6022.000     1.4868   0.1402   170.6
6023.000     1.4146   0.1404   170.5
6024.000     1.3822   0.1406   170.5
6025.000     1.8409   0.1410   170.4
6026.000     1.2961   0.1415   170.3
6027.000     1.3708   0.1421   170.3
6028.000     1.5161   0.1426   170.2
6029.000     1.5578   0.1432   170.1
6030.000     1.4294   0.1437   170.1
6031.000     1.4028   0.1442   170.0
6032.000     1.4536   0.1447   170.0
6033.000     1.4065   0.1450   169.9
6034.000     1.5352   0.1453   169.8
6035.000     1.2752   0.1456   169.8
6036.000     1.4134   0.1458   169.7
6037.000     1.5283   0.1459   169.6
6038.000     1.5541   0.1459   169.6
6039.000     1.4556   0.1459   169.5
6040.000     1.5748   0.1459   169.4
6041.000     1.1155   0.1459   169.4
6042.000     1.4574   0.1459   169.3
6043.000     1.3496   0.1460   169.2
6044.000     1.5528   0.1462   169.2
6045.000     1.5397   0.1464   169.1
6046.000     1.7231   0.1466   169.1
6047.000     1.3449   0.1469   169.0
6048.000     1.2073   0.1471   168.9
6049.000     1.6791   0.1472   168.9
6050.000     1.4784   0.1473   168.8
6051.000     1.4208   0.1472   168.7
6052.000     1.5870   0.1471   168.7
6053.000     1.1911   0.1469   168.6
6054.000     1.3782   0.1467   168.5
6055.000     1.4718   0.1464   168.5
6056.000     1.4540   0.1461   168.4
6057.000     1.4807   0.1460   168.4
6058.000     1.5697   0.1459   168.3
6059.000     1.4678   0.1458   168.2
6060.000     1.3490   0.1458   168.2
6061.000     1.3581   0.1458   168.1
6062.000     1.5182   0.1457   168.0
6063.000     1.6519   0.1455   168.0
6064.000     1.4274   0.1453   167.9
6065.000     1.7184   0.1452   167.8
6066.000     1.3943   0.1453   167.8
6067.000     1.3959   0.1455   167.7
6068.000     1.4638   0.1459   167.6
6069.000     1.8034   0.1465   167.6
6070.000     1.3780   0.1472   167.5
6071.000     1.3506   0.1478   167.5
6072.000     1.6417   0.1483   167.4
6073.000     1.5772   0.1487   167.3
6074.000     1.3397   0.1488   167.3
6075.000     1.5550   0.1486   167.2
6076.000     1.6258   0.1483   167.1
6077.000     1.4861   0.1479   167.1
6078.000     1.5569   0.1473   167.0
6079.000     1.5049   0.1467   166.9
6080.000     1.4340   0.1462   166.9
6081.000     1.3603   0.1457   166.8
6082.000     1.5035   0.1454   166.8
6083.000     1.4699   0.1451   166.7
6084.000     1.3525   0.1450   166.6
6085.000     1.5293   0.1450   166.6
6086.000     1.3797   0.1450   166.5
6087.000     1.4896   0.1451   166.4
6088.000     1.7245   0.1451   166.4
6089.000     1.3118   0.1451   166.3
6090.000     1.4226   0.1452   166.2
6091.000     1.4987   0.1452   166.2
6092.000     1.3994   0.1453   166.1
6093.000     1.5571   0.1454   166.0
6094.000     1.3505   0.1457   166.0
6095.000     1.2167   0.1460   165.9
6096.000     1.3031   0.1463   165.9
6097.000     1.3918   0.1466   165.8
6098.000     1.6719   0.1467   165.7
6099.000     1.5388   0.1466   165.7
6100.000     1.2097   0.1463   165.6
6101.000     1.2809   0.1459   165.5
6102.000     1.4668   0.1454   165.5
6103.000     1.5719   0.1450   165.4
6104.000     1.3060   0.1447   165.3
6105.000     1.4957   0.1446   165.3
6106.000     1.3619   0.1449   165.2
6107.000     1.4554   0.1453   165.2
6108.000     1.4431   0.1458   165.1
6109.000     1.7066   0.1464   165.0
6110.000     1.3619   0.1469   165.0
6111.000     1.4029   0.1474   164.9
6112.000     1.6676   0.1477   164.8
6113.000     1.4326   0.1480   164.8
6114.000     1.6142   0.1482   164.7
6115.000     1.3103   0.1483   164.6
6116.000     1.3200   0.1482   164.6
6117.000     1.5412   0.1480   164.5
6118.000     1.4812   0.1477   164.4
6119.000     1.2761   0.1472   164.4
6120.000     1.4648   0.1466   164.3
6121.000     1.6658   0.1461   164.3
6122.000     1.5638   0.1456   164.2
6123.000     1.5832   0.1452   164.1
6124.000     1.3426   0.1451   164.1
6125.000     1.5036   0.1452   164.0
6126.000     1.5577   0.1455   163.9
6127.000     1.3532   0.1459   163.9
6128.000     1.5323   0.1462   163.8
6129.000     1.2924   0.1466   163.7
6130.000     1.5092   0.1469   163.7
6131.000     1.4102   0.1471   163.6
6132.000     1.7613   0.1470   163.6
6133.000     1.4044   0.1467   163.5
6134.000     1.4627   0.1461   163.4
6135.000     1.3237   0.1453   163.4
6136.000     1.6413   0.1443   163.3
6137.000     1.2377   0.1433   163.2
6138.000     1.3531   0.1427   163.2
6139.000     1.1677   0.1424   163.1
6140.000     1.2419   0.1426   163.0
6141.000     1.5312   0.1432   163.0
6142.000     1.5094   0.1440   162.9
6143.000     1.5733   0.1450   162.8
6144.000     1.5786   0.1459   162.8
6145.000     1.5243   0.1468   162.7
6146.000     1.4955   0.1474   162.7
6147.000     1.1091   0.1479   162.6
6148.000     1.4816   0.1482   162.5
6149.000     1.3701   0.1483   162.5
6150.000     1.5643   0.1482   162.4
6151.000     1.5771   0.1482   162.3
6152.000     1.4222   0.1481   162.3
6153.000     1.3626   0.1481   162.2
6154.000     1.6383   0.1481   162.1
6155.000     1.4692   0.1480   162.1
6156.000     1.3682   0.1477   162.0
6157.000     1.6139   0.1473   162.0
6158.000     1.5360   0.1466   161.9
6159.000     1.6513   0.1457   161.8
6160.000     1.3747   0.1445   161.8
6161.000     1.4916   0.1432   161.7
6162.000     1.4893   0.1419   161.6
6163.000     1.5046   0.1408   161.6
6164.000     1.1243   0.1401   161.5
6165.000     1.2333   0.1398   161.4
6166.000     1.5374   0.1399   161.4
6167.000     1.6065   0.1402   161.3
6168.000     1.4014   0.1406   161.2
6169.000     1.4100   0.1410   161.2
6170.000     1.6108   0.1414   161.1
6171.000     1.4141   0.1419   161.1
6172.000     1.4898   0.1424   161.0
6173.000     1.2806   0.1430   160.9
6174.000     1.3018   0.1436   160.9
6175.000     1.3296   0.1443   160.8
6176.000     1.5482   0.1450   160.7
6177.000     1.5223   0.1456   160.7
6178.000     1.7449   0.1462   160.6
6179.000     1.4447   0.1467   160.5
6180.000     1.3656   0.1471   160.5
6181.000     1.5312   0.1475   160.4
6182.000     1.6429   0.1478   160.4
6183.000     1.1628   0.1480   160.3
6184.000     1.6973   0.1480   160.2
6185.000     1.3737   0.1478   160.2
6186.000     1.4071   0.1475   160.1
6187.000     1.4447   0.1469   160.0
6188.000     1.3980   0.1461   160.0
6189.000     1.3680   0.1454   159.9
6190.000     1.3056   0.1446   159.8
6191.000     1.6100   0.1441   159.8
6192.000     1.4616   0.1438   159.7
6193.000     1.4796   0.1439   159.6
6194.000     1.4517   0.1443   159.6
6195.000     1.2842   0.1449   159.5
6196.000     1.6426   0.1456   159.5
6197.000     1.4761   0.1463   159.4
6198.000     1.4538   0.1468   159.3
6199.000     1.3363   0.1471   159.3
6200.000     1.5389   0.1473   159.2
6201.000     1.5460   0.1474   159.1
6202.000     1.2240   0.1476   159.1
6203.000     1.6546   0.1479   159.0
6204.000     1.6022   0.1483   158.9
6205.000     1.6552   0.1487   158.9
6206.000     1.5414   0.1491   158.8
6207.000     1.3329   0.1493   158.8
6208.000     1.5111   0.1495   158.7
6209.000     1.5895   0.1494   158.6
6210.000     1.5096   0.1491   158.6
6211.000     1.5512   0.1486   158.5
6212.000     1.4639   0.1478   158.4
6213.000     1.4519   0.1469   158.4
6214.000     1.6792   0.1460   158.3
6215.000     1.7619   0.1452   158.2
6216.000     1.3683   0.1445   158.2
6217.000     1.3012   0.1441   158.1
6218.000     1.8212   0.1440   158.0
6219.000     1.4651   0.1440   158.0
6220.000     1.3841   0.1442   157.9
6221.000     1.1990   0.1444   157.9
6222.000     1.8079   0.1448   157.8
6223.000     1.4733   0.1451   157.7
6224.000     1.5687   0.1455   157.7
6225.000     1.6181   0.1458   157.6
6226.000     1.4951   0.1459   157.5
6227.000     1.5324   0.1459   157.5
6228.000     1.6280   0.1457   157.4
6229.000     1.4020   0.1453   157.3
6230.000     1.4662   0.1448   157.3
6231.000     1.8039   0.1443   157.2
6232.000     1.3983   0.1441   157.2
6233.000     1.3024   0.1442   157.1
6234.000     1.4398   0.1446   157.0
6235.000     1.6292   0.1451   157.0
6236.000     1.2209   0.1458   156.9
6237.000     1.5713   0.1462   156.8
6238.000     1.3020   0.1464   156.8
6239.000     1.5340   0.1464   156.7
6240.000     1.3677   0.1460   156.6
6241.000     1.2397   0.1455   156.6
6242.000     1.4233   0.1450   156.5
6243.000     1.3161   0.1445   156.4
6244.000     1.3165   0.1441   156.4
6245.000     1.4878   0.1440   156.3
6246.000     1.5364   0.1440   156.3
6247.000     1.4641   0.1443   156.2
6248.000     1.7689   0.1446   156.1
6249.000     1.4380   0.1450   156.1
6250.000     1.3063   0.1452   156.0
6251.000     1.2014   0.1452   155.9
6252.000     1.4373   0.1450   155.9
6253.000     1.6151   0.1444   155.8
6254.000     1.4959   0.1437   155.7
6255.000     1.2745   0.1429   155.7
6256.000     1.4100   0.1423   155.6
6257.000     1.2779   0.1419   155.6
6258.000     1.4204   0.1417   155.5
6259.000     1.4696   0.1419   155.4
6260.000     1.5909   0.1425   155.4
6261.000     1.3701   0.1433   155.3
6262.000     1.4150   0.1443   155.2
6263.000     1.4570   0.1453   155.2
6264.000     1.4276   0.1462   155.1
6265.000     1.3015   0.1470   155.0
6266.000     1.3971   0.1477   155.0
6267.000     1.1500   0.1481   154.9
6268.000     1.2936   0.1484   154.8
6269.000     1.3775   0.1487   154.8
6270.000     1.5084   0.1489   154.7
6271.000     1.1506   0.1491   154.7
6272.000     1.3579   0.1494   154.6
6273.000     1.3403   0.1496   154.5
6274.000     1.8950   0.1499   154.5
6275.000     1.5777   0.1501   154.4
6276.000     1.5712   0.1502   154.3
6277.000     1.6514   0.1501   154.3
6278.000     1.3886   0.1500   154.2
6279.000     1.6471   0.1497   154.1
6280.000     1.5402   0.1494   154.1
6281.000     1.5176   0.1492   154.0
6282.000     1.6004   0.1491   154.0
6283.000     1.6782   0.1492   153.9
6284.000     1.2142   0.1494   153.8
6285.000     1.4896   0.1499   153.8
6286.000     1.9378   0.1504   153.7
6287.000     1.7131   0.1510   153.6
6288.000     1.5607   0.1515   153.6
6289.000     1.4339   0.1519   153.5
6290.000     1.4234   0.1522   153.4
6291.000     1.8199   0.1522   153.4
6292.000     1.5934   0.1521   153.3
6293.000     1.3801   0.1518   153.2
6294.000     1.6324   0.1514   153.2
6295.000     1.4400   0.1510   153.1
6296.000     1.3912   0.1505   153.1
6297.000     1.4337   0.1500   153.0
6298.000     1.3742   0.1495   152.9
6299.000     1.2506   0.1491   152.9
6300.000     1.5939   0.1488   152.8
6301.000     1.4915   0.1486   152.7
6302.000     1.1745   0.1486   152.7
6303.000     1.0109   0.1488   152.6
6304.000     1.5784   0.1491   152.5
6305.000     1.7179   0.1497   152.5
6306.000     1.8952   0.1504   152.4
6307.000     1.4881   0.1511   152.4
6308.000     1.5530   0.1517   152.3
6309.000     1.3476   0.1522   152.2
6310.000     1.2490   0.1524   152.2
6311.000     1.5493   0.1523   152.1
6312.000     1.4199   0.1520   152.0
6313.000     1.5457   0.1515   152.0
6314.000     1.5691   0.1509   151.9
6315.000     1.2862   0.1503   151.8
6316.000     1.6590   0.1498   151.8
6317.000     1.5883   0.1493   151.7
6318.000     1.7496   0.1490   151.6
6319.000     1.6160   0.1489   151.6
6320.000     1.3854   0.1491   151.5
6321.000     1.4159   0.1495   151.5
6322.000     1.4906   0.1500   151.4
6323.000     1.3299   0.1508   151.3
6324.000     1.6298   0.1515   151.3
6325.000     1.5460   0.1523   151.2
6326.000     1.8444   0.1529   151.1
6327.000     1.4583   0.1534   151.1
6328.000     1.4658   0.1538   151.0
6329.000     1.8053   0.1541   150.9
6330.000     1.6742   0.1542   150.9
6331.000     1.3557   0.1542   150.8
6332.000     1.4124   0.1540   150.8
6333.000     1.6285   0.1538   150.7
6334.000     1.4652   0.1533   150.6
6335.000     1.5057   0.1528   150.6
6336.000     1.4633   0.1523   150.5
6337.000     1.8894   0.1519   150.4
6338.000     1.3234   0.1517   150.4
6339.000     1.3285   0.1517   150.3
6340.000     1.5015   0.1520   150.2
6341.000     1.5943   0.1523   150.2
6342.000     1.4664   0.1527   150.1
6343.000     1.2802   0.1529   150.0
6344.000     1.4925   0.1531   150.0
6345.000     1.3881   0.1532   149.9
6346.000     1.7209   0.1533   149.9
6347.000     1.7019   0.1536   149.8
6348.000     1.4257   0.1539   149.7
6349.000     1.4914   0.1543   149.7
6350.000     1.6958   0.1547   149.6
6351.000     1.7326   0.1550   149.5
6352.000     1.4179   0.1552   149.5
6353.000     1.7820   0.1551   149.4
6354.000     1.7034   0.1548   149.3
6355.000     1.8679   0.1543   149.3
6356.000     1.6880   0.1537   149.2
6357.000     1.2772   0.1530   149.2
6358.000     1.5426   0.1523   149.1
6359.000     1.5668   0.1517   149.0
6360.000     1.5751   0.1511   149.0
6361.000     1.6231   0.1506   148.9
6362.000     1.4654   0.1503   148.8
6363.000     1.5433   0.1503   148.8
6364.000     1.4697   0.1505   148.7
6365.000     1.2103   0.1509   148.6
6366.000     1.4714   0.1516   148.6
6367.000     1.3574   0.1524   148.5
6368.000     1.6173   0.1532   148.4
6369.000     1.8753   0.1541   148.4
6370.000     1.5636   0.1549   148.3
6371.000     1.5526   0.1555   148.3
6372.000     1.5491   0.1561   148.2
6373.000     1.5346   0.1566   148.1
6374.000     1.5545   0.1570   148.1
6375.000     1.5708   0.1573   148.0
6376.000     1.7265   0.1575   147.9
6377.000     1.5665   0.1575   147.9
6378.000     1.5290   0.1574   147.8
6379.000     1.4221   0.1573   147.7
6380.000     1.5073   0.1571   147.7
6381.000     1.6133   0.1570   147.6
6382.000     1.7487   0.1570   147.6
6383.000     1.6035   0.1570   147.5
6384.000     1.6380   0.1572   147.4
6385.000     1.6096   0.1574   147.4
6386.000     1.3458   0.1577   147.3
6387.000     1.5361   0.1579   147.2
6388.000     1.6893   0.1580   147.2
6389.000     1.6742   0.1580   147.1
6390.000     1.6209   0.1578   147.0
6391.000     1.5302   0.1574   147.0
6392.000     1.7127   0.1568   146.9
6393.000     1.4942   0.1563   146.8
6394.000     1.8394   0.1558   146.8
6395.000     1.5659   0.1555   146.7
6396.000     1.7133   0.1554   146.7
6397.000     1.4577   0.1554   146.6
6398.000     1.5373   0.1555   146.5
6399.000     1.6445   0.1556   146.5
6400.000     1.5481   0.1556   146.4
6401.000     1.4652   0.1557   146.3
6402.000     1.8940   0.1559   146.3
6403.000     1.6373   0.1563   146.2
6404.000     1.6790   0.1568   146.1
6405.000     1.3978   0.1573   146.1
6406.000     1.5408   0.1577   146.0
6407.000     1.5095   0.1578   146.0
6408.000     1.5199   0.1576   145.9
6409.000     1.4697   0.1574   145.8
6410.000     1.7311   0.1570   145.8
6411.000     1.5261   0.1568   145.7
6412.000     1.8311   0.1566   145.6
6413.000     1.6310   0.1566   145.6
6414.000     1.5348   0.1567   145.5
6415.000     1.5050   0.1569   145.4
6416.000     1.2339   0.1571   145.4
6417.000     1.6974   0.1572   145.3
6418.000     1.2528   0.1572   145.2
6419.000     1.6477   0.1571   145.2
6420.000     1.5711   0.1569   145.1
6421.000     1.5673   0.1568   145.1
6422.000     1.6878   0.1569   145.0
6423.000     1.6870   0.1573   144.9
6424.000     1.4877   0.1578   144.9
6425.000     1.7753   0.1585   144.8
6426.000     1.5327   0.1592   144.7
6427.000     1.6300   0.1596   144.7
6428.000     1.6623   0.1598   144.6
6429.000     1.7362   0.1596   144.5
6430.000     1.7085   0.1592   144.5
6431.000     1.7293   0.1587   144.4
6432.000     1.6571   0.1582   144.4
6433.000     1.3791   0.1580   144.3
6434.000     1.5579   0.1580   144.2
6435.000     1.7235   0.1581   144.2
6436.000     1.2559   0.1583   144.1
6437.000     1.5049   0.1585   144.0
6438.000     1.4031   0.1586   144.0
6439.000     1.8073   0.1586   143.9
6440.000     1.6976   0.1587   143.8
6441.000     1.5287   0.1591   143.8
6442.000     1.8548   0.1596   143.7
6443.000     1.5983   0.1603   143.6
6444.000     1.8491   0.1609   143.6
6445.000     1.5805   0.1614   143.5
6446.000     1.5910   0.1614   143.5
6447.000     1.5270   0.1611   143.4
6448.000     1.8426   0.1604   143.3
6449.000     1.7070   0.1593   143.3
6450.000     1.5914   0.1583   143.2
6451.000     1.6192   0.1574   143.1
6452.000     1.6756   0.1569   143.1
6453.000     1.6301   0.1569   143.0
6454.000     2.0748   0.1572   142.9
6455.000     1.7096   0.1577   142.9
6456.000     1.7284   0.1582   142.8
6457.000     1.5491   0.1587   142.8
6458.000     1.5537   0.1590   142.7
6459.000     1.5756   0.1593   142.6
6460.000     1.3628   0.1594   142.6
6461.000     1.6448   0.1592   142.5
6462.000     1.5456   0.1589   142.4
6463.000     1.4501   0.1585   142.4
6464.000     1.6052   0.1583   142.3
6465.000     1.6787   0.1583   142.2
6466.000     1.6770   0.1586   142.2
6467.000     1.7360   0.1591   142.1
6468.000     1.2973   0.1596   142.0
6469.000     1.5439   0.1600   142.0
6470.000     1.5606   0.1602   141.9
6471.000     1.5595   0.1602   141.9
6472.000     1.7378   0.1601   141.8
6473.000     1.2816   0.1600   141.7
6474.000     1.5844   0.1600   141.7
6475.000     1.5391   0.1600   141.6
6476.000     1.9638   0.1601   141.5
6477.000     1.4472   0.1603   141.5
6478.000     1.5695   0.1604   141.4
6479.000     1.8068   0.1604   141.3
6480.000     1.3578   0.1603   141.3
6481.000     1.9058   0.1600   141.2
6482.000     1.7176   0.1597   141.2
6483.000     1.5850   0.1594   141.1
6484.000     1.8115   0.1593   141.0
6485.000     1.6157   0.1593   141.0
6486.000     1.3526   0.1596   140.9
6487.000     1.5048   0.1599   140.8
6488.000     1.4427   0.1601   140.8
6489.000     1.6859   0.1600   140.7
6490.000     1.7183   0.1594   140.6
6491.000     1.5346   0.1584   140.6
6492.000     1.5598   0.1569   140.5
6493.000     1.6854   0.1550   140.4
6494.000     1.4108   0.1529   140.4
6495.000     1.7280   0.1510   140.3
6496.000     1.5416   0.1494   140.3
6497.000     1.4728   0.1485   140.2
6498.000     1.3002   0.1484   140.1
6499.000     1.5374   0.1491   140.1
6500.000     1.5822   0.1505   140.0
6501.000     1.4357   0.1522   140.0
6502.000     1.7053   0.1542   140.0
6503.000     1.5752   0.1561   140.0
6504.000     1.6736   0.1578   140.0
6505.000     1.7431   0.1592   140.0
6506.000     1.1701   0.1602   140.0
6507.000     1.4499   0.1610   140.0
6508.000     1.6901   0.1615   140.0
6509.000     1.4004   0.1618   140.0
6510.000     1.6184   0.1620   140.0
6511.000     1.9860   0.1620   140.0
6512.000     1.6245   0.1620   140.0
6513.000     1.6798   0.1619   140.0
6514.000     1.6328   0.1616   140.0
6515.000     1.6250   0.1612   140.0
6516.000     1.3905   0.1608   140.0
6517.000     1.5703   0.1603   140.0
6518.000     1.8349   0.1600   140.0
6519.000     1.6365   0.1598   140.0
6520.000     1.7556   0.1599   140.0
6521.000     1.6988   0.1603   140.0
6522.000     1.8664   0.1607   140.0
6523.000     1.6153   0.1612   140.0
6524.000     1.6424   0.1615   140.0
6525.000     1.4390   0.1618   140.0
6526.000     1.5489   0.1618   140.0
6527.000     1.9582   0.1617   140.0
6528.000     1.6788   0.1616   140.0
6529.000     1.6153   0.1614   140.0
6530.000     1.4061   0.1612   140.0
6531.000     1.6900   0.1611   140.0
6532.000     1.5996   0.1610   140.0
6533.000     1.4661   0.1610   140.0
6534.000     1.4982   0.1610   140.0
6535.000     1.7043   0.1611   140.0
6536.000     1.7074   0.1613   140.0
6537.000     1.4318   0.1615   140.0
6538.000     1.8259   0.1618   140.0
6539.000     1.5943   0.1620   140.0
6540.000     1.7649   0.1621   140.0
6541.000     1.4821   0.1620   140.0
6542.000     1.4611   0.1617   140.0
6543.000     1.7331   0.1613   140.0
6544.000     1.7217   0.1606   140.0
6545.000     1.6029   0.1599   140.0
6546.000     1.4815   0.1591   140.0
6547.000     1.4272   0.1585   140.0
6548.000     1.4505   0.1580   140.0
6549.000     1.3537   0.1577   140.0
6550.000     1.7440   0.1574   140.0
6551.000     1.6952   0.1572   140.0
6552.000     1.5671   0.1568   140.0
6553.000     1.7034   0.1562   140.0
6554.000     1.3565   0.1554   140.0
6555.000     1.5254   0.1543   140.0
6556.000     1.5310   0.1530   140.0
6557.000     1.7389   0.1512   140.0
6558.000     1.6534   0.1490   140.0
6559.000     1.5084   0.1462   140.0
6560.000     1.3666   0.1426   140.0
6561.000     1.4472   0.1386   140.0
6562.000     1.3796   0.1345   140.0
6563.000     1.3066   0.1311   140.0
6564.000     1.0037   0.1292   140.0
6565.000     1.4410   0.1291   140.0
6566.000     1.4175   0.1312   140.0
6567.000     1.6491   0.1348   140.0
6568.000     1.2463   0.1391   140.0
6569.000     1.1961   0.1433   140.0
6570.000     1.4756   0.1469   140.0
6571.000     1.5464   0.1496   140.0
6572.000     1.7049   0.1514   140.0
6573.000     1.6114   0.1527   140.0
6574.000     1.5021   0.1535   140.0
6575.000     1.2879   0.1543   140.0
6576.000     1.6304   0.1552   140.0
6577.000     1.6549   0.1562   140.0
6578.000     1.4868   0.1572   140.0
6579.000     1.4185   0.1582   140.0
6580.000     1.5415   0.1591   140.0
6581.000     1.7578   0.1598   140.0
6582.000     1.4261   0.1603   140.0
6583.000     1.7496   0.1606   140.0
6584.000     1.7040   0.1609   140.0
6585.000     1.9249   0.1611   140.0
6586.000     1.8667   0.1613   140.0
6587.000     1.4694   0.1615   140.0
6588.000     1.4663   0.1616   140.0
6589.000     1.7202   0.1615   140.0
6590.000     1.7097   0.1613   140.0
6591.000     1.5851   0.1608   140.0
6592.000     1.2611   0.1602   140.0
6593.000     1.4569   0.1595   140.0
6594.000     1.8273   0.1590   140.0
6595.000     1.6216   0.1587   140.0
6596.000     1.1960   0.1587   140.0
6597.000     1.2452   0.1591   140.0
6598.000     1.5699   0.1598   140.0
6599.000     1.7095   0.1606   140.0
6600.000     1.6302   0.1614   140.0
6601.000     1.4614   0.1621   140.0
6602.000     1.4370   0.1626   140.0
6603.000     1.6109   0.1629   140.0
6604.000     1.5487   0.1630   140.0
6605.000     1.5303   0.1628   140.0
6606.000     1.6822   0.1624   140.0
6607.000     1.7919   0.1620   140.0
6608.000     1.4086   0.1616   140.0
6609.000     1.9095   0.1613   140.0
6610.000     1.5907   0.1613   140.0
6611.000     1.6443   0.1615   140.0
6612.000     1.5739   0.1619   140.0
6613.000     1.4151   0.1625   140.0
6614.000     1.6084   0.1631   140.0
6615.000     1.9234   0.1636   140.0
6616.000     1.6416   0.1642   140.0
6617.000     1.5546   0.1647   140.0
6618.000     1.6565   0.1650   140.0
6619.000     1.7713   0.1653   140.0
6620.000     1.5788   0.1655   140.0
6621.000     1.8435   0.1656   140.0
6622.000     1.7281   0.1654   140.0
6623.000     1.6932   0.1652   140.0
6624.000     1.5747   0.1648   140.0
6625.000     1.6191   0.1644   140.0
6626.000     1.6406   0.1641   140.0
6627.000     1.7215   0.1638   140.0
6628.000     1.7353   0.1636   140.0
6629.000     1.7401   0.1635   140.0
6630.000     1.6535   0.1633   140.0
6631.000     1.7774   0.1631   140.0
6632.000     1.5103   0.1628   140.0
6633.000     1.5242   0.1625   140.0
6634.000     1.7182   0.1622   140.0
6635.000     1.5564   0.1621   140.0
6636.000     1.7011   0.1622   140.0
6637.000     1.7429   0.1626   140.0
6638.000     1.7973   0.1630   140.0
6639.000     1.5814   0.1634   140.0
6640.000     1.6875   0.1637   140.0
6641.000     1.7346   0.1638   140.0
6642.000     1.7719   0.1638   140.0
6643.000     1.4737   0.1636   140.0
6644.000     1.9052   0.1634   140.0
6645.000     1.3115   0.1633   140.0
6646.000     1.6092   0.1633   140.0
6647.000     1.5650   0.1634   140.0
6648.000     1.5542   0.1637   140.0
6649.000     1.5875   0.1641   140.0
6650.000     1.6498   0.1644   140.0
6651.000     1.7737   0.1648   140.0
6652.000     1.9146   0.1651   140.0
6653.000     1.2481   0.1653   140.0
6654.000     1.7848   0.1654   140.0
6655.000     1.5575   0.1655   140.0
6656.000     1.6186   0.1655   140.0
6657.000     1.9055   0.1655   140.0
6658.000     1.6161   0.1655   140.0
6659.000     1.7231   0.1653   140.0
6660.000     1.7846   0.1650   140.0
6661.000     1.6935   0.1646   140.0
6662.000     1.8205   0.1641   140.0
6663.000     1.7066   0.1635   140.0
6664.000     1.6067   0.1631   140.0
6665.000     1.8469   0.1627   140.0
6666.000     1.6881   0.1626   140.0
6667.000     1.5977   0.1627   140.0
6668.000     1.5680   0.1631   140.0
6669.000     1.4629   0.1636   140.0
6670.000     1.8112   0.1642   140.0
6671.000     1.8789   0.1647   140.0
6672.000     1.9001   0.1652   140.0
6673.000     1.6304   0.1654   140.0
6674.000     1.8522   0.1655   140.0
6675.000     1.4494   0.1652   140.0
6676.000     1.5657   0.1648   140.0
6677.000     1.5698   0.1642   140.0
6678.000     1.4242   0.1635   140.0
6679.000     1.8714   0.1630   140.0
6680.000     1.6419   0.1628   140.0
6681.000     1.8739   0.1629   140.0
6682.000     1.8826   0.1633   140.0
6683.000     1.9631   0.1639   140.0
6684.000     1.8880   0.1645   140.0
6685.000     1.7355   0.1651   140.0
6686.000     1.3661   0.1656   140.0
6687.000     1.6030   0.1659   140.0
6688.000     1.7059   0.1662   140.0
6689.000     1.8858   0.1663   140.0
6690.000     1.5790   0.1663   140.0
6691.000     1.6451   0.1663   140.0
6692.000     1.8467   0.1663   140.0
6693.000     1.4525   0.1662   140.0
6694.000     1.6150   0.1660   140.0
6695.000     1.7383   0.1657   140.0
6696.000     1.8339   0.1655   140.0
6697.000     1.6821   0.1652   140.0
6698.000     1.8914   0.1651   140.0
6699.000     1.4742   0.1650   140.0
6700.000     1.3353   0.1651   140.0
6701.000     1.7557   0.1651   140.0
6702.000     1.7474   0.1652   140.0
6703.000     1.3563   0.1653   140.0
6704.000     1.5356   0.1653   140.0
6705.000     1.5459   0.1652   140.0
6706.000     1.4788   0.1652   140.0
6707.000     1.8763   0.1652   140.0
6708.000     1.3125   0.1652   140.0
6709.000     1.7846   0.1652   140.0
6710.000     1.8887   0.1652   140.0
6711.000     1.6287   0.1651   140.0
6712.000     1.7704   0.1649   140.0
6713.000     1.4641   0.1647   140.0
6714.000     1.7550   0.1642   140.0
6715.000     1.4784   0.1638   140.0
6716.000     1.8864   0.1633   140.0
6717.000     1.7757   0.1628   140.0
6718.000     1.6035   0.1626   140.0
6719.000     1.3969   0.1626   140.0
6720.000     1.7899   0.1628   140.0
6721.000     1.5511   0.1633   140.0
6722.000     1.6896   0.1639   140.0
6723.000     1.6076   0.1645   140.0
6724.000     1.7136   0.1650   140.0
6725.000     1.5814   0.1655   140.0
6726.000     1.3213   0.1658   140.0
6727.000     1.6575   0.1660   140.0
6728.000     1.8739   0.1662   140.0
6729.000     1.7348   0.1664   140.0
6730.000     1.5496   0.1665   140.0
6731.000     1.5041   0.1667   140.0
6732.000     1.5978   0.1668   140.0
6733.000     1.7806   0.1669   140.0
6734.000     1.4147   0.1669   140.0
6735.000     1.9409   0.1669   140.0
6736.000     1.5602   0.1668   140.0
6737.000     1.6125   0.1666   140.0
6738.000     1.9480   0.1664   140.0
6739.000     1.5986   0.1661   140.0
6740.000     1.6035   0.1659   140.0
6741.000     1.4534   0.1657   140.0
6742.000     1.4632   0.1655   140.0
6743.000     1.9692   0.1654   140.0
6744.000     1.7433   0.1653   140.0
6745.000     1.7581   0.1653   140.0
6746.000     1.6473   0.1653   140.0
6747.000     1.1467   0.1653   140.0
6748.000     2.0372   0.1652   140.0
6749.000     1.3703   0.1652   140.0
6750.000     1.6244   0.1651   140.0
6751.000     1.5388   0.1651   140.0
6752.000     1.7651   0.1651   140.0
6753.000     1.5173   0.1653   140.0
6754.000     1.5566   0.1655   140.0
6755.000     1.6436   0.1660   140.0
6756.000     1.8154   0.1665   140.0
6757.000     1.6204   0.1671   140.0
6758.000     1.5948   0.1677   140.0
6759.000     1.3870   0.1682   140.0
6760.000     1.3947   0.1686   140.0
6761.000     1.4455   0.1689   140.0
6762.000     1.6150   0.1690   140.0
6763.000     1.7949   0.1690   140.0
6764.000     1.5354   0.1688   140.0
6765.000     1.8561   0.1685   140.0
6766.000     1.8850   0.1681   140.0
6767.000     1.6415   0.1676   140.0
6768.000     1.8582   0.1672   140.0
6769.000     1.5750   0.1668   140.0
6770.000     1.2847   0.1666   140.0
6771.000     1.8990   0.1665   140.0
6772.000     1.5295   0.1667   140.0
6773.000     1.9239   0.1670   140.0
6774.000     1.5240   0.1675   140.0
6775.000     1.3026   0.1681   140.0
6776.000     1.7209   0.1687   140.0
6777.000     1.3739   0.1692   140.0
6778.000     1.8229   0.1697   140.0
6779.000     1.4771   0.1699   140.0
6780.000     1.6548   0.1700   140.0
6781.000     1.9427   0.1699   140.0
6782.000     1.5772   0.1696   140.0
6783.000     1.8316   0.1691   140.0
6784.000     1.8511   0.1687   140.0
6785.000     1.5620   0.1683   140.0
6786.000     1.6967   0.1680   140.0
6787.000     1.8668   0.1679   140.0
6788.000     1.6725   0.1680   140.0
6789.000     1.8580   0.1683   140.0
6790.000     1.9119   0.1685   140.0
6791.000     1.8553   0.1688   140.0
6792.000     1.8379   0.1690   140.0
6793.000     1.8888   0.1691   140.0
6794.000     1.5694   0.1691   140.0
6795.000     1.7088   0.1691   140.0
6796.000     1.5348   0.1691   140.0
6797.000     1.6380   0.1692   140.0
6798.000     1.6209   0.1693   140.0
6799.000     1.8207   0.1694   140.0
6800.000     1.6412   0.1696   140.0
6801.000     1.8569   0.1698   140.0
6802.000     1.2374   0.1700   140.0
6803.000     1.9854   0.1701   140.0
6804.000     1.5984   0.1701   140.0
6805.000     1.3528   0.1701   140.0
6806.000     1.8043   0.1700   140.0
6807.000     1.8366   0.1699   140.0
6808.000     1.7996   0.1699   140.0
6809.000     2.0315   0.1698   140.0
6810.000     1.6718   0.1698   140.0
6811.000     1.6830   0.1699   140.0
6812.000     1.7181   0.1699   140.0
6813.000     1.5175   0.1700   140.0
6814.000     1.5330   0.1700   140.0
6815.000     1.9113   0.1701   140.0
6816.000     1.7643   0.1702   140.0
6817.000     1.6005   0.1703   140.0
6818.000     1.7285   0.1704   140.0
6819.000     1.8811   0.1706   140.0
6820.000     1.6129   0.1708   140.0
6821.000     1.6934   0.1710   140.0
6822.000     1.8634   0.1712   140.0
6823.000     1.8951   0.1714   140.0
6824.000     1.2954   0.1716   140.0
6825.000     1.5282   0.1718   140.0
6826.000     1.9147   0.1718   140.0
6827.000     1.5425   0.1719   140.0
6828.000     1.7177   0.1718   140.0
6829.000     2.0066   0.1717   140.0
6830.000     1.8121   0.1717   140.0
6831.000     1.7613   0.1717   140.0
6832.000     1.7609   0.1718   140.0
6833.000     1.7194   0.1720   140.0
6834.000     1.7700   0.1721   140.0
6835.000     1.9273   0.1722   140.0
6836.000     1.4892   0.1721   140.0
6837.000     1.6967   0.1718   140.0
6838.000     1.7509   0.1714   140.0
6839.000     1.7926   0.1708   140.0
6840.000     1.7317   0.1701   140.0
6841.000     1.6151   0.1694   140.0
6842.000     1.9508   0.1689   140.0
6843.000     1.8330   0.1686   140.0
6844.000     1.7248   0.1687   140.0
6845.000     1.7600   0.1690   140.0
6846.000     2.0244   0.1695   140.0
6847.000     1.7373   0.1701   140.0
6848.000     1.7851   0.1708   140.0
6849.000     1.5520   0.1713   140.0
6850.000     1.8476   0.1717   140.0
6851.000     1.7221   0.1719   140.0
6852.000     1.5144   0.1720   140.0
6853.000     2.1225   0.1718   140.0
6854.000     1.6874   0.1716   140.0
6855.000     1.8542   0.1712   140.0
6856.000     1.5586   0.1708   140.0
6857.000     2.0017   0.1705   140.0
6858.000     1.8192   0.1702   140.0
6859.000     1.4920   0.1701   140.0
6860.000     1.5828   0.1701   140.0
6861.000     1.4365   0.1702   140.0
6862.000     1.6157   0.1703   140.0
6863.000     2.0860   0.1706   140.0
6864.000     1.2922   0.1709   140.0
6865.000     1.3348   0.1712   140.0
6866.000     1.5568   0.1714   140.0
6867.000     1.6508   0.1715   140.0
6868.000     1.7222   0.1716   140.0
6869.000     1.4938   0.1715   140.0
6870.000     1.8281   0.1714   140.0
6871.000     1.7023   0.1712   140.0
6872.000     1.4637   0.1712   140.0
6873.000     1.7874   0.1712   140.0
6874.000     1.7459   0.1713   140.0
6875.000     1.6996   0.1715   140.0
6876.000     1.4441   0.1718   140.0
6877.000     1.7336   0.1721   140.0
6878.000     1.5539   0.1724   140.0
6879.000     1.4934   0.1726   140.0
6880.000     1.7047   0.1727   140.0
6881.000     1.6614   0.1727   140.0
6882.000     1.8892   0.1726   140.0
6883.000     1.6964   0.1725   140.0
6884.000     2.2436   0.1724   140.0
6885.000     2.1840   0.1725   140.0
6886.000     1.5697   0.1726   140.0
6887.000     1.5350   0.1730   140.0
6888.000     1.8497   0.1734   140.0
6889.000     1.6704   0.1739   140.0
6890.000     1.8504   0.1743   140.0
6891.000     1.4875   0.1747   140.0
6892.000     1.8721   0.1751   140.0
6893.000     1.8557   0.1753   140.0
6894.000     1.7234   0.1754   140.0
6895.000     1.8529   0.1754   140.0
6896.000     1.5716   0.1753   140.0
6897.000     1.6939   0.1753   140.0
6898.000     1.6183   0.1752   140.0
6899.000     1.8984   0.1752   140.0
6900.000     1.5451   0.1753   140.0
6901.000     1.5022   0.1754   140.0
6902.000     1.6507   0.1755   140.0
6903.000     2.0619   0.1757   140.0
6904.000     1.6576   0.1760   140.0
6905.000     1.7047   0.1762   140.0
6906.000     1.5948   0.1764   140.0
6907.000     1.9197   0.1765   140.0
6908.000     1.6647   0.1766   140.0
6909.000     1.5995   0.1766   140.0
6910.000     1.8432   0.1765   140.0
6911.000     1.6982   0.1763   140.0
6912.000     1.6025   0.1759   140.0
6913.000     1.7951   0.1755   140.0
6914.000     1.8464   0.1750   140.0
6915.000     1.8874   0.1746   140.0
6916.000     1.7603   0.1743   140.0
6917.000     1.8974   0.1742   140.0
6918.000     1.6309   0.1744   140.0
6919.000     1.8163   0.1747   140.0
6920.000     1.5321   0.1751   140.0
6921.000     1.4621   0.1755   140.0
6922.000     1.6778   0.1758   140.0
6923.000     1.8426   0.1759   140.0
6924.000     1.7714   0.1759   140.0
6925.000     1.6512   0.1758   140.0
6926.000     1.4272   0.1757   140.0
6927.000     1.6357   0.1755   140.0
6928.000     1.9651   0.1755   140.0
6929.000     1.9023   0.1756   140.0
6930.000     1.7526   0.1757   140.0
6931.000     1.7922   0.1758   140.0
6932.000     1.6458   0.1759   140.0
6933.000     1.8538   0.1760   140.0
6934.000     1.8255   0.1760   140.0
6935.000     1.4965   0.1761   140.0
6936.000     1.6212   0.1761   140.0
6937.000     2.0782   0.1763   140.0
6938.000     1.8115   0.1764   140.0
6939.000     1.9543   0.1766   140.0
6940.000     1.8233   0.1767   140.0
6941.000     1.5925   0.1767   140.0
6942.000     1.8790   0.1766   140.0
6943.000     1.8717   0.1764   140.0
6944.000     1.9448   0.1762   140.0
6945.000     1.9107   0.1759   140.0
6946.000     1.5799   0.1757   140.0
6947.000     1.8585   0.1756   140.0
6948.000     2.0239   0.1756   140.0
6949.000     1.4915   0.1758   140.0
6950.000     1.7795   0.1759   140.0
6951.000     1.7681   0.1761   140.0
6952.000     1.5789   0.1762   140.0
6953.000     1.6795   0.1763   140.0
6954.000     1.8455   0.1765   140.0
6955.000     2.1043   0.1766   140.0
6956.000     1.7480   0.1768   140.0
6957.000     1.7872   0.1772   140.0
6958.000     1.6858   0.1775   140.0
6959.000     1.4065   0.1779   140.0
6960.000     1.7506   0.1783   140.0
6961.000     1.6311   0.1786   140.0
6962.000     1.9688   0.1789   140.0
6963.000     1.4940   0.1791   140.0
6964.000     1.5979   0.1793   140.0
6965.000     1.8962   0.1795   140.0
6966.000     1.7591   0.1796   140.0
6967.000     1.8441   0.1797   140.0
6968.000     1.9106   0.1798   140.0
6969.000     1.6713   0.1799   140.0
6970.000     1.8645   0.1799   140.0
6971.000     1.7601   0.1798   140.0
6972.000     1.6815   0.1796   140.0
6973.000     1.7567   0.1793   140.0
6974.000     2.0081   0.1788   140.0
6975.000     1.5396   0.1781   140.0
6976.000     2.3688   0.1773   140.0
6977.000     2.0189   0.1765   140.0
6978.000     1.6532   0.1757   140.0
6979.000     1.7230   0.1751   140.0
6980.000     1.6882   0.1749   140.0
6981.000     1.7862   0.1751   140.0
6982.000     1.7802   0.1757   140.0
6983.000     1.9998   0.1765   140.0
6984.000     2.0465   0.1775   140.0
6985.000     1.9815   0.1784   140.0
6986.000     1.7607   0.1792   140.0
6987.000     1.8276   0.1797   140.0
6988.000     1.6772   0.1800   140.0
6989.000     1.6911   0.1802   140.0
6990.000     2.0701   0.1803   140.0
6991.000     1.9108   0.1804   140.0
6992.000     1.6370   0.1805   140.0
6993.000     2.0041   0.1806   140.0
6994.000     1.8396   0.1807   140.0
6995.000     2.0562   0.1808   140.0
6996.000     1.7108   0.1808   140.0
6997.000     1.7180   0.1807   140.0
6998.000     1.8769   0.1804   140.0
6999.000     1.8794   0.1800   140.0
7000.000     1.7480   0.1791   140.0
